File: data/phase_2a/Sergey/3/20.7/01 eis/C7D1_hr 0,1MFeCN6_in_1M_KCl_3306mL_symmetric_balanced_4_point_PEIS_10mV_C16.mpt
EC-Lab ASCII FILE
Nb header lines : 69

Potentio Electrochemical Impedance Spectroscopy

Run on channel : 16 (SN 21084)
User :
CE vs. WE compliance from -10 V to 10 V
Electrode connection : standard
Potential control : Ewe
Ewe ctrl range : min = -1,00 V, max = 1,00 V
Safety Limits :
	Do not start on E overload
Acquisition started on : 09/03/2025 12:01:18.206
Loaded Setting File :  C:\Users\IOMCguest\Desktop\Local Data\Sergey local\Interlaboratorz studz\Polarization\C7D1\SN50_C7D1_lr 0,1MFeCN6_in_1M_KCl_3306mL_symmetric_balanced_4_point_PEIS_10mV after night_C16.mpr
Saved on :
	File : C7D1_hr 0,1MFeCN6_in_1M_KCl_3306mL_symmetric_balanced_4_point_PEIS_10mV_C16.mpr
	Directory : C:\Users\IOMCguest\Desktop\Local Data\Sergey local\Interlaboratorz studz\Impedance\C7D1\
	Host : 10.232.56.37
Device : VMP3 (SN 0725)
Address : 10.232.56.42
EC-LAB for windows v11.61 (software)
Internet server v11.61 (firmware)
Command interpretor v11.61 (firmware)
Electrode material :
Initial state :
Electrolyte :
Comments :
Mass of active material : 0,001 mg
 at x = 0,000
Molecular weight of active material (at x = 0) : 0,001 g/mol
Atomic weight of intercalated ion : 0,001 g/mol
Acquisition started at : xo = 0,000
Number of e- transfered per intercalated ion : 1
for DX = 1, DQ = 26,802 mA.h
Battery capacity : 0,000 A.h
Electrode surface area : 0,000 cm?
Characteristic mass : 0,001 g
Volume (V) : 0,001 cm?
Cycle Definition : Charge/Discharge alternance
Mode                Single sine
E (V)               0,0000
vs.                 Eoc
tE (h:m:s)          0:00:0,0000
record              0
dI                  0,000
unit dI             mA
dt (s)              0,000
fi                  200,000
unit fi             kHz
ff                  10,000
unit ff             mHz
Nd                  10
Points              per decade
spacing             Logarithmic
Va (mV)             10,0
pw                  0,10
Na                  2
corr                0
E range min (V)     -1,000
E range max (V)     1,000
I Range             Auto
Bandwidth           5
nc cycles           200
goto Ns'            0
nr cycles           0
inc. cycle          0

freq/Hz	Re(Z)/Ohm	-Im(Z)/Ohm	|Z|/Ohm	Phase(Z)/deg	time/s	<Ewe>/V	<I>/mA	Cs/µF	Cp/µF	cycle number	I Range	|Ewe|/V	|I|/A	Ns	(Q-Qo)/mA.h	Re(Y)/Ohm-1	Im(Y)/Ohm-1	|Y|/Ohm-1	Phase(Y)/deg	Re(C)/nF	Im(C)/nF	|C|/nF	Phase(C)/deg	Re(M)	Im(M)	|M|	Phase(M)/deg	Re(Permittivity)	Im(Permittivity)	|Permittivity|	Phase(Permittivity)/deg	Re(Resistivity)/Ohm.cm	Im(Resistivity)/Ohm.cm	|Resistivity|/Ohm.cm	Phase(Resistivity)/deg	Re(Conductivity)/mS/cm	Im(Conductivity)/mS/cm	|Conductivity|/mS/cm	Phase(Conductivity)/deg	Tan(Delta)	Loss Angle(Delta)/deg	dq/mA.h	x	Pwe/W	Rwe/Ohm
1,9999814E+005	2,6014110E-001	-2,1414513E-002	2,6102102E-001	4,7059116E+000	1,306483235355699E+000	-4,7457800E-003	-5,2924919E+000	-3,7160877E+001	-2,5012171E-001	1,000000000000000E+000	9	1,0693545E-003	4,0968135E-003	0	-1,497540040776392E-003	3,8181942E+000	-3,1430933E-001	3,8311090E+000	-4,7059116E+000	-2,5012163E+002	3,0384504E+003	3,0487280E+003	-9,4705910E+001	0,0000000E+000	0,0000000E+000	0,0000000E+000	9,4705910E+001	0,0000000E+000	0,0000000E+000	0,0000000E+000	-9,4705910E+001	0,0000000E+000	0,0000000E+000	0,0000000E+000	4,7059116E+000	0,0000000E+000	0,0000000E+000	0,0000000E+000	-4,7059116E+000	1,2147888E+001	8,5294090E+001	-1,497540040776392E-003	5,587523238536620E-005	2,5117002E-005	8,9670050E-001
1,9980818E+002	2,9537538E-001	4,2916317E-003	2,9540655E-001	-8,3241564E-001	1,861094853730174E+001	-4,5569455E-003	-3,4876742E+000	1,8560275E+005	3,9173199E+001	1,000000000000000E+000	9	1,0867072E-002	3,6786836E-002	0	-1,904498082394764E-002	3,3848081E+000	4,9179282E-002	3,3851652E+000	8,3241564E-001	3,9173063E+004	2,6961305E+006	2,6964150E+006	-8,9167587E+001	0,0000000E+000	0,0000000E+000	0,0000000E+000	8,9167587E+001	0,0000000E+000	0,0000000E+000	0,0000000E+000	-8,9167587E+001	0,0000000E+000	0,0000000E+000	0,0000000E+000	-8,3241564E-001	0,0000000E+000	0,0000000E+000	0,0000000E+000	8,3241564E-001	6,8825890E+001	8,9167587E+001	-4,153922420342786E-004	7,105938407905391E-004	1,5893142E-005	1,3065858E+000
1,9980818E-001	3,4233326E-001	4,8016209E-002	3,4568426E-001	-7,9843102E+000	7,668351321559749E+001	-4,5345863E-003	-3,8668942E+000	1,6588955E+007	3,2006306E+005	1,000000000000000E+000	10	1,0867944E-002	3,1438932E-002	0	-8,684018959264146E-002	2,8647707E+000	4,0181732E-001	2,8928132E+000	7,9843102E+000	3,2006317E+008	2,2819005E+009	2,3042376E+009	-8,2015686E+001	0,0000000E+000	0,0000000E+000	0,0000000E+000	8,2015686E+001	0,0000000E+000	0,0000000E+000	0,0000000E+000	-8,2015686E+001	0,0000000E+000	0,0000000E+000	0,0000000E+000	-7,9843102E+000	0,0000000E+000	0,0000000E+000	0,0000000E+000	7,9843102E+000	7,1295352E+000	8,2015686E+001	-1,421757957537617E-002	3,240124231578138E-003	1,7534765E-005	1,1726688E+000
5,0216069E+003	2,9072595E-001	2,2282060E-003	2,9073450E-001	-4,3912247E-001	1,059145759293409E+003	-4,5552109E-003	-1,5962183E+000	1,4224011E+004	8,3548683E-001	2,000000000000000E+000	9	1,0787783E-002	3,7105273E-002	0	-8,035527968277004E-001	3,4394631E+000	2,6361018E-002	3,4395642E+000	4,3912247E-001	8,3549176E+002	1,0901044E+005	1,0901364E+005	-8,9560875E+001	0,0000000E+000	0,0000000E+000	0,0000000E+000	8,9560875E+001	0,0000000E+000	0,0000000E+000	0,0000000E+000	-8,9560875E+001	0,0000000E+000	0,0000000E+000	0,0000000E+000	-4,3912247E-001	0,0000000E+000	0,0000000E+000	0,0000000E+000	4,3912247E-001	1,3047534E+002	8,9560875E+001	-1,877632010380825E-004	2,998163523786730E-002	7,2711114E-006	2,8537517E+000
5,0144420E+000	3,1179443E-001	8,4062228E-003	3,1190774E-001	-1,5443652E+000	1,073450241519458E+003	-4,5725387E-003	-1,7042420E+000	3,7756925E+006	2,7424968E+003	2,000000000000000E+000	9	1,0863165E-002	3,4828138E-002	0	-8,100012581102070E-001	3,2049117E+000	8,6406946E-002	3,2060764E+000	1,5443652E+000	2,7424965E+006	1,0172170E+008	1,0175866E+008	-8,8455635E+001	0,0000000E+000	0,0000000E+000	0,0000000E+000	8,8455635E+001	0,0000000E+000	0,0000000E+000	0,0000000E+000	-8,8455635E+001	0,0000000E+000	0,0000000E+000	0,0000000E+000	-1,5443652E+000	0,0000000E+000	0,0000000E+000	0,0000000E+000	1,5443652E+000	3,7090908E+001	8,8455635E+001	2,762321293345860E-004	3,022223599836602E-002	7,7927125E-006	2,6830337E+000
1,2618765E+005	2,8189248E-001	-8,2514454E-003	2,8201321E-001	1,6766608E+000	2,096617585183965E+003	-4,7560763E-003	-2,7359288E+000	-1,5285275E+002	-1,3085623E-001	3,000000000000000E+000	9	3,4711873E-003	1,2308598E-002	0	-1,320562879055121E+000	3,5444150E+000	-1,0375073E-001	3,5459332E+000	-1,6766608E+000	-1,3085608E+002	4,4704155E+003	4,4723301E+003	-9,1676659E+001	0,0000000E+000	0,0000000E+000	0,0000000E+000	9,1676659E+001	0,0000000E+000	0,0000000E+000	0,0000000E+000	-9,1676659E+001	0,0000000E+000	0,0000000E+000	0,0000000E+000	1,6766608E+000	0,0000000E+000	0,0000000E+000	0,0000000E+000	-1,6766608E+000	3,4162800E+001	8,8323341E+001	-3,376824043774818E-004	4,927197653322093E-002	1,3012286E-005	1,7383772E+000
1,2600809E+002	2,9991710E-001	4,6353401E-003	2,9995292E-001	-8,8545889E-001	2,114270270129113E+003	-4,5695542E-003	-4,7908673E-001	2,7248341E+005	6,5072433E+001	3,000000000000000E+000	9	1,0869826E-002	3,6238439E-002	0	-1,324575847753906E+000	3,3334584E+000	5,1519945E-002	3,3338566E+000	8,8545889E-001	6,5072512E+004	4,2103355E+006	4,2108385E+006	-8,9114540E+001	0,0000000E+000	0,0000000E+000	0,0000000E+000	8,9114540E+001	0,0000000E+000	0,0000000E+000	0,0000000E+000	-8,9114540E+001	0,0000000E+000	0,0000000E+000	0,0000000E+000	-8,8545889E-001	0,0000000E+000	0,0000000E+000	0,0000000E+000	8,8545889E-001	6,4702286E+001	8,9114540E+001	-3,895172784385004E-005	4,942170579086639E-002	2,1892129E-006	9,5380526E+000
1,2590654E-001	3,6088490E-001	6,1179563E-002	3,6603394E-001	-9,6216774E+000	2,201429540962243E+003	-4,5438409E-003	-9,0744859E-001	2,0661672E+007	5,7721219E+005	3,000000000000000E+000	10	1,0867516E-002	2,9689912E-002	0	-1,334884017134305E+000	2,6935558E+000	4,5662916E-001	2,7319870E+000	9,6216774E+000	5,7721197E+008	3,4048489E+009	3,4534287E+009	-8,0378326E+001	0,0000000E+000	0,0000000E+000	0,0000000E+000	8,0378326E+001	0,0000000E+000	0,0000000E+000	0,0000000E+000	-8,0378326E+001	0,0000000E+000	0,0000000E+000	0,0000000E+000	-9,6216774E+000	0,0000000E+000	0,0000000E+000	0,0000000E+000	9,6216774E+000	5,8987818E+000	8,0378326E+001	1,081367953515766E-003	4,980631744993024E-002	4,1233020E-006	5,0072708E+000
3,1669595E+003	2,9413858E-001	2,5766338E-003	2,9414988E-001	-5,0189424E-001	3,155447087102366E+003	-4,5667379E-003	-1,7983143E-001	1,9504055E+004	1,4965560E+000	4,000000000000000E+000	9	1,0461564E-002	3,5565421E-002	0	-1,446026458675101E+000	3,3994970E+000	2,9779360E-002	3,3996274E+000	5,0189424E-001	1,4965496E+003	1,7084108E+005	1,7084763E+005	-8,9498108E+001	0,0000000E+000	0,0000000E+000	0,0000000E+000	8,9498108E+001	0,0000000E+000	0,0000000E+000	0,0000000E+000	-8,9498108E+001	0,0000000E+000	0,0000000E+000	0,0000000E+000	-5,0189424E-001	0,0000000E+000	0,0000000E+000	0,0000000E+000	5,0189424E-001	1,1415614E+002	8,9498108E+001	-5,257380051260085E-005	5,395319137641928E-002	8,2124302E-007	2,5394548E+001
3,1655185E+000	3,1637338E-001	9,1996193E-003	3,1650710E-001	-1,6655980E+000	3,169873906000939E+003	-4,5593050E-003	-1,4809929E-001	5,4651920E+006	4,6171948E+003	4,000000000000000E+000	9	1,0866222E-002	3,4331683E-002	0	-1,447496235554033E+000	3,1581519E+000	9,1833882E-002	3,1594868E+000	1,6655980E+000	4,6171895E+006	1,5878456E+008	1,5885168E+008	-8,8334404E+001	0,0000000E+000	0,0000000E+000	0,0000000E+000	8,8334404E+001	0,0000000E+000	0,0000000E+000	0,0000000E+000	-8,8334404E+001	0,0000000E+000	0,0000000E+000	0,0000000E+000	-1,6655980E+000	0,0000000E+000	0,0000000E+000	0,0000000E+000	1,6655980E+000	3,4389835E+001	8,8334404E+001	-5,859469121098915E-004	5,400803072790825E-002	6,7522984E-007	3,0785461E+001
7,9609563E+004	2,8993234E-001	-3,1598557E-003	2,8994957E-001	6,2441885E-001	4,193749697005696E+003	-4,7828229E-003	-6,4593118E-001	-6,3268512E+002	-7,5141042E-002	5,000000000000000E+000	9	2,3331726E-002	8,0468222E-002	0	-1,657014243480830E+000	3,4486709E+000	-3,7585672E-002	3,4488757E+000	-6,2441885E-001	-7,5141197E+001	6,8945610E+003	6,8949707E+003	-9,0624420E+001	0,0000000E+000	0,0000000E+000	0,0000000E+000	9,0624420E+001	0,0000000E+000	0,0000000E+000	0,0000000E+000	-9,0624420E+001	0,0000000E+000	0,0000000E+000	0,0000000E+000	6,2441885E-001	0,0000000E+000	0,0000000E+000	0,0000000E+000	-6,2441885E-001	9,1754929E+001	8,9375580E+001	-3,546041901707486E-004	6,182542930361471E-002	3,0893746E-006	7,4045396E+000
7,9516548E+001	3,0373332E-001	5,3082285E-003	3,0377969E-001	-1,0012341E+000	4,210492167454300E+003	-4,5791976E-003	2,8433046E-001	3,7706219E+005	1,1513165E+002	5,000000000000000E+000	9	1,0865829E-002	3,5768781E-002	0	-1,656098863485217E+000	3,2913568E+000	5,7521757E-002	3,2918594E+000	1,0012341E+000	1,1513188E+005	6,5877570E+006	6,5887630E+006	-8,8998764E+001	0,0000000E+000	0,0000000E+000	0,0000000E+000	8,8998764E+001	0,0000000E+000	0,0000000E+000	0,0000000E+000	-8,8998764E+001	0,0000000E+000	0,0000000E+000	0,0000000E+000	-1,0012341E+000	0,0000000E+000	0,0000000E+000	0,0000000E+000	1,0012341E+000	5,7219337E+001	8,8998764E+001	3,085326732188420E-005	6,179127524523691E-002	-1,3020053E-006	1,6105196E+001
7,9421178E-002	3,8468957E-001	7,6827012E-002	3,9228618E-001	-1,1294049E+001	4,344229526473122E+003	-4,5490521E-003	-1,4011222E-001	2,6083740E+007	1,0004416E+006	5,000000000000000E+000	10	1,0867683E-002	2,7703457E-002	0	-1,673531568283793E+000	2,4997947E+000	4,9923831E-001	2,5491593E+000	1,1294049E+001	1,0004419E+009	5,0094285E+009	5,1083520E+009	-7,8705948E+001	0,0000000E+000	0,0000000E+000	0,0000000E+000	7,8705948E+001	0,0000000E+000	0,0000000E+000	0,0000000E+000	-7,8705948E+001	0,0000000E+000	0,0000000E+000	0,0000000E+000	-1,1294049E+001	0,0000000E+000	0,0000000E+000	0,0000000E+000	1,1294049E+001	5,0072174E+000	7,8705948E+001	-9,601863912278574E-004	6,244171289979266E-002	6,3737781E-007	3,2467205E+001
1,9980818E+003	2,9702350E-001	2,8532215E-003	2,9703721E-001	-5,5036896E-001	5,251665195840702E+003	-4,5721470E-003	5,4094690E-001	2,7917168E+004	2,5758502E+000	6,000000000000000E+000	9	1,0593262E-002	3,5663079E-002	0	-1,774269351030745E+000	3,3664262E+000	3,2338046E-002	3,3665814E+000	5,5036896E-001	2,5758518E+003	2,6814888E+005	2,6816125E+005	-8,9449631E+001	0,0000000E+000	0,0000000E+000	0,0000000E+000	8,9449631E+001	0,0000000E+000	0,0000000E+000	0,0000000E+000	-8,9449631E+001	0,0000000E+000	0,0000000E+000	0,0000000E+000	-5,5036896E-001	0,0000000E+000	0,0000000E+000	0,0000000E+000	5,5036896E-001	1,0410110E+002	8,9449631E+001	9,718071624642555E-005	6,620037501747086E-002	-2,4732888E-006	8,4521179E+000
2,5136747E+000	3,1935534E-001	1,0383990E-002	3,1952411E-001	-1,8623433E+000	5,266034967029933E+003	-4,5616454E-003	5,7945991E-001	6,0974295E+006	6,4397354E+003	6,000000000000000E+000	9	1,0742093E-002	3,3619035E-002	0	-1,772178192882703E+000	3,1280012E+000	1,0170845E-001	3,1296544E+000	1,8623433E+000	6,4397345E+006	1,9805142E+008	1,9815610E+008	-8,8137657E+001	0,0000000E+000	0,0000000E+000	0,0000000E+000	8,8137657E+001	0,0000000E+000	0,0000000E+000	0,0000000E+000	-8,8137657E+001	0,0000000E+000	0,0000000E+000	0,0000000E+000	-1,8623433E+000	0,0000000E+000	0,0000000E+000	0,0000000E+000	1,8623433E+000	3,0754589E+001	8,8137657E+001	6,354155044621113E-004	6,612235109537538E-002	-2,6432906E-006	7,8722367E+000