File: data/phase_2a/Sergey/1/3.3/01 eis/SN50_C5D1E2_lr_0,1MFeCN6_in_1M_KCl_3306mL_symmetric_balanced_4_point_PEIS_10mHz_200kHz_10mV_C16.txt
time/s	freq/Hz	Re(Z)/Ohm	-Im(Z)/Ohm
26/08/2025 22:00:02.1095	1,9999814E+005	3,0942431E-001	-1,0003540E-001
26/08/2025 22:00:02.9775	1,2618765E+005	3,2897294E-001	-5,8606889E-002
26/08/2025 22:00:04.9655	7,9609563E+004	3,3325231E-001	-3,5591692E-002
26/08/2025 22:00:07.9335	5,0224539E+004	3,3442461E-001	-2,2150822E-002
26/08/2025 22:00:09.2215	3,1686090E+004	3,3519974E-001	-1,2743161E-002
26/08/2025 22:00:10.0895	1,9995176E+004	3,3632272E-001	-6,7726481E-003
26/08/2025 22:00:10.9585	1,2618766E+004	3,3709830E-001	-2,9327031E-003
26/08/2025 22:00:11.8838	7,9597607E+003	3,3797345E-001	-5,7583925E-004
26/08/2025 22:00:12.9707	5,0216069E+003	3,3884555E-001	9,9049276E-004
26/08/2025 22:00:13.9060	3,1669595E+003	3,3985937E-001	1,8407287E-003
26/08/2025 22:00:14.8399	1,9980818E+003	3,4066737E-001	2,7104684E-003
26/08/2025 22:00:15.7727	1,2604036E+003	3,4187341E-001	3,2454843E-003
26/08/2025 22:00:16.7077	7,9525409E+002	3,4264478E-001	3,6961641E-003
26/08/2025 22:00:17.6409	5,0208865E+002	3,4405297E-001	4,2687193E-003
26/08/2025 22:00:18.7967	3,1672299E+002	3,4514558E-001	4,5916541E-003
26/08/2025 22:00:19.7299	1,9980818E+002	3,4679845E-001	5,1664282E-003
26/08/2025 22:00:20.6641	1,2600809E+002	3,4796971E-001	5,5803144E-003
26/08/2025 22:00:21.6020	7,9516548E+001	3,4974599E-001	6,3189077E-003
26/08/2025 22:00:22.5489	5,0208866E+001	3,5172752E-001	6,9012456E-003
26/08/2025 22:00:23.4622	3,1672298E+001	3,5370556E-001	7,6284599E-003
26/08/2025 22:00:24.3959	1,9980818E+001	3,5595682E-001	8,4702251E-003
26/08/2025 22:00:25.3868	1,2600809E+001	3,5823378E-001	9,4414055E-003
26/08/2025 22:00:26.4272	7,9557004E+000	3,6102775E-001	1,0556202E-002
26/08/2025 22:00:27.2762	5,0144420E+000	3,6373934E-001	1,1878551E-002
26/08/2025 22:00:28.5577	3,1655185E+000	3,6692029E-001	1,3893789E-002
26/08/2025 22:00:30.5287	1,9970603E+000	3,7066180E-001	1,5796620E-002
26/08/2025 22:00:34.2831	1,2596742E+000	3,7438288E-001	1,8916061E-002
26/08/2025 22:00:39.1031	7,9443753E-001	3,7837735E-001	2,3868350E-002
26/08/2025 22:00:46.6981	5,0118679E-001	3,8399288E-001	3,0153882E-002
26/08/2025 22:00:58.6860	3,1619310E-001	3,9105058E-001	3,9860439E-002
26/08/2025 22:01:17.6388	1,9980818E-001	4,0097979E-001	5,1119320E-002
26/08/2025 22:01:47.6575	1,2590654E-001	4,1510716E-001	6,7295700E-002
26/08/2025 22:02:35.1725	7,9421178E-002	4,3247774E-001	8,5186593E-002
26/08/2025 22:03:50.4510	5,0154075E-002	4,5778087E-001	1,0837928E-001
26/08/2025 22:05:49.8452	3,1592205E-002	4,8683080E-001	1,3574605E-001
26/08/2025 22:08:58.8534	1,9949391E-002	5,2825779E-001	1,6670202E-001
26/08/2025 22:13:58.5527	1,2576789E-002	5,7834238E-001	2,0631346E-001
26/08/2025 22:17:29.4095	1,9999814E+005	3,1180725E-001	-9,0811402E-002
26/08/2025 22:17:30.2775	1,2618765E+005	3,2844183E-001	-5,4179028E-002
26/08/2025 22:17:32.2665	7,9609563E+004	3,3370933E-001	-3,4800820E-002
26/08/2025 22:17:35.6545	5,0224539E+004	3,3473480E-001	-2,1370316E-002
26/08/2025 22:17:36.9425	3,1686090E+004	3,3565190E-001	-1,2532694E-002
26/08/2025 22:17:37.8105	1,9995176E+004	3,3630857E-001	-6,4186640E-003
26/08/2025 22:17:38.6785	1,2618766E+004	3,3717731E-001	-2,6485489E-003
26/08/2025 22:17:39.6048	7,9597607E+003	3,3826235E-001	-2,8224802E-004
26/08/2025 22:17:40.6558	5,0216069E+003	3,3910370E-001	1,0748330E-003
26/08/2025 22:17:41.8140	3,1669595E+003	3,3999306E-001	1,7949935E-003
26/08/2025 22:17:42.7480	1,9980818E+003	3,4095946E-001	2,5580113E-003
26/08/2025 22:17:43.6807	1,2604036E+003	3,4207618E-001	3,2865247E-003
26/08/2025 22:17:44.6157	7,9525409E+002	3,4312034E-001	3,5926278E-003
26/08/2025 22:17:45.5500	5,0208865E+002	3,4414420E-001	4,1138879E-003
26/08/2025 22:17:46.4827	3,1672299E+002	3,4535107E-001	4,3864283E-003
26/08/2025 22:17:47.4160	1,9980818E+002	3,4679097E-001	5,0305864E-003
26/08/2025 22:17:48.3502	1,2600809E+002	3,4842280E-001	5,5497843E-003
26/08/2025 22:17:49.2880	7,9516548E+001	3,5005820E-001	6,2924949E-003
26/08/2025 22:17:50.2330	5,0208866E+001	3,5174674E-001	6,9981338E-003
26/08/2025 22:17:51.1462	3,1672298E+001	3,5378134E-001	7,5868405E-003
26/08/2025 22:17:52.0800	1,9980818E+001	3,5610864E-001	8,3967103E-003
26/08/2025 22:17:53.0709	1,2600809E+001	3,5843432E-001	9,5275277E-003
26/08/2025 22:17:54.1112	7,9557004E+000	3,6106497E-001	1,0593968E-002
26/08/2025 22:17:54.9602	5,0144420E+000	3,6410820E-001	1,2016824E-002
26/08/2025 22:17:56.2418	3,1655185E+000	3,6735696E-001	1,3662274E-002
26/08/2025 22:17:58.2127	1,9970603E+000	3,7070131E-001	1,5762888E-002
26/08/2025 22:18:01.9670	1,2596742E+000	3,7468761E-001	1,8808337E-002
26/08/2025 22:18:06.7873	7,9443753E-001	3,7858602E-001	2,4188455E-002
26/08/2025 22:18:14.3820	5,0118679E-001	3,8426638E-001	3,0316664E-002
26/08/2025 22:18:26.3701	3,1619310E-001	3,9080340E-001	3,9340716E-002
26/08/2025 22:18:45.3229	1,9980818E-001	4,0181699E-001	5,1206682E-002
26/08/2025 22:19:15.3417	1,2590654E-001	4,1458929E-001	6,7326590E-002
26/08/2025 22:20:02.8578	7,9421178E-002	4,3331984E-001	8,4906444E-002
26/08/2025 22:21:18.1364	5,0154075E-002	4,5711914E-001	1,0908164E-001
26/08/2025 22:23:17.5325	3,1592205E-002	4,8734584E-001	1,3451357E-001
26/08/2025 22:24:41.1519	2,5144994E-002	5,0706118E-001	1,4990892E-001