File: data/phase_2a/Sergey/1/8.3/02 polarisation/SN50_C5D1E2_mr2_0,1MFeCN6_in_1M_KCl_3306mL_symmetric_balanced_4_point_PEIS_10mHz_200kHz_10mV_03_CP_C16.txt
time/s	I/mA	<Ewe/V>
27/08/2025 00:37:51.2597	1,3705294E-001	-3,9587650E-002
27/08/2025 00:38:08.0597	6,0686987E-002	-1,0087754E-002
27/08/2025 00:38:24.8597	1,4978060E-001	-5,4487898E-003
27/08/2025 00:38:41.6597	1,3705294E-001	-4,3630796E-003
27/08/2025 00:38:58.4597	1,3705294E-001	-4,2898888E-003
27/08/2025 00:39:15.2597	1,1796144E-001	-4,3687709E-003
27/08/2025 00:39:32.0597	1,1159762E-001	-4,4404715E-003
27/08/2025 00:39:48.8597	1,1796144E-001	-4,4790916E-003
27/08/2025 00:40:05.6595	1,3265744E+002	7,8537814E-002
27/08/2025 00:40:22.4595	1,3265106E+002	8,6943947E-002
27/08/2025 00:40:39.2595	1,3264470E+002	8,9598864E-002
27/08/2025 00:40:56.0595	1,3258743E+002	9,0642318E-002
27/08/2025 00:41:12.8595	1,3258107E+002	9,1380037E-002
27/08/2025 00:41:29.6595	1,3263834E+002	9,2182614E-002
27/08/2025 00:41:46.4595	1,3261288E+002	9,2983127E-002
27/08/2025 00:42:03.1597	1,3068911E-001	1,1877152E-002
27/08/2025 00:42:19.9597	1,6887209E-001	2,8234187E-003
27/08/2025 00:42:36.7597	4,1595493E-002	5,7655410E-004
27/08/2025 00:42:53.5597	1,6250826E-001	2,4566884E-004
27/08/2025 00:43:10.3597	2,1341887E-001	3,1782794E-004
27/08/2025 00:43:27.1597	1,8796356E-001	4,0049199E-004
27/08/2025 00:43:43.9597	1,4978060E-001	4,5882282E-004
27/08/2025 00:44:00.6599	-1,3234514E+002	-7,6333985E-002
27/08/2025 00:44:17.4599	-1,3231967E+002	-8,9278921E-002
27/08/2025 00:44:34.2599	-1,3235785E+002	-9,3230940E-002
27/08/2025 00:44:51.0599	-1,3234514E+002	-9,4665878E-002
27/08/2025 00:45:07.8599	-1,3240878E+002	-9,5317028E-002
27/08/2025 00:45:24.6599	-1,3235785E+002	-9,5903464E-002
27/08/2025 00:45:41.4599	-1,3237695E+002	-9,6472450E-002
27/08/2025 00:45:58.1601	1,5909277E+002	6,4904861E-002
27/08/2025 00:46:14.9601	1,5916278E+002	9,8361738E-002
27/08/2025 00:46:31.7601	1,5907368E+002	1,0734687E-001
27/08/2025 00:46:48.5601	1,5913097E+002	1,1011768E-001
27/08/2025 00:47:05.3601	1,5911188E+002	1,1128258E-001
27/08/2025 00:47:22.1601	1,5908643E+002	1,1215215E-001
27/08/2025 00:47:38.9601	1,5906096E+002	1,1284457E-001
27/08/2025 00:47:55.6605	1,0523378E-001	2,9928086E-002
27/08/2025 00:48:12.4605	9,2506140E-002	7,2890325E-003
27/08/2025 00:48:29.2605	1,6250826E-001	2,2939334E-003
27/08/2025 00:48:46.0605	1,6250826E-001	1,1789623E-003
27/08/2025 00:49:02.8605	1,2432528E-001	1,1718191E-003
27/08/2025 00:49:19.6605	1,7523590E-001	1,2898177E-003
27/08/2025 00:49:36.4605	1,1159762E-001	1,3737424E-003
27/08/2025 00:49:53.1607	-1,5880594E+002	-6,8933949E-002
27/08/2025 00:50:09.9607	-1,5882503E+002	-1,0224419E-001
27/08/2025 00:50:26.7607	-1,5879320E+002	-1,1011072E-001
27/08/2025 00:50:43.5607	-1,5881865E+002	-1,1267754E-001
27/08/2025 00:51:00.3607	-1,5893958E+002	-1,1369426E-001
27/08/2025 00:51:17.1607	-1,5888231E+002	-1,1440470E-001
27/08/2025 00:51:33.9607	-1,5881865E+002	-1,1521274E-001
27/08/2025 00:51:50.7607	-1,5885684E+002	-1,1608071E-001
27/08/2025 00:52:07.4609	1,8568088E+002	1,0430133E-001
27/08/2025 00:52:24.2609	1,8564267E+002	1,2321069E-001
27/08/2025 00:52:41.0609	1,8566177E+002	1,2931702E-001
27/08/2025 00:52:57.8609	1,8555995E+002	1,3127047E-001
27/08/2025 00:53:14.6609	1,8568723E+002	1,3221957E-001
27/08/2025 00:53:31.4609	1,8564905E+002	1,3304056E-001
27/08/2025 00:53:48.2609	1,8564267E+002	1,3395560E-001
27/08/2025 00:54:04.9613	1,4978060E-001	1,6071588E-002
27/08/2025 00:54:21.7613	1,2432528E-001	5,1342291E-003
27/08/2025 00:54:38.5613	1,6250826E-001	2,3921446E-003
27/08/2025 00:54:55.3613	1,4978060E-001	2,0295156E-003
27/08/2025 00:55:12.1613	1,4341676E-001	2,1478580E-003
27/08/2025 00:55:28.9613	1,2432528E-001	2,2738022E-003
27/08/2025 00:55:45.7613	1,4341676E-001	2,3440896E-003
27/08/2025 00:56:02.4615	-1,8537491E+002	-1,0879809E-001
27/08/2025 00:56:19.2615	-1,8532401E+002	-1,2518685E-001
27/08/2025 00:56:36.0615	-1,8536220E+002	-1,3037707E-001
27/08/2025 00:56:52.8615	-1,8534309E+002	-1,3212788E-001
27/08/2025 00:57:09.6615	-1,8535582E+002	-1,3319400E-001
27/08/2025 00:57:26.4615	-1,8527310E+002	-1,3420564E-001
27/08/2025 00:57:43.2615	-1,8533037E+002	-1,3540137E-001
27/08/2025 00:57:59.9617	2,1216711E+002	9,5124401E-002
27/08/2025 00:58:16.7617	2,1212894E+002	1,3541861E-001
27/08/2025 00:58:33.5617	2,1213531E+002	1,4730129E-001
27/08/2025 00:58:50.3617	2,1214803E+002	1,5103923E-001
27/08/2025 00:59:07.1617	2,1216077E+002	1,5248907E-001
27/08/2025 00:59:23.9617	2,1217984E+002	1,5346998E-001
27/08/2025 00:59:40.7617	2,1211621E+002	1,5463929E-001
27/08/2025 00:59:57.4621	1,9432738E-001	3,4975749E-002
27/08/2025 01:00:14.2621	-9,3151405E-003	1,0055336E-002
27/08/2025 01:00:31.0621	9,8869957E-002	4,2109061E-003
27/08/2025 01:00:47.8621	1,4978060E-001	2,9735432E-003
27/08/2025 01:01:04.6621	1,3705294E-001	2,9928721E-003
27/08/2025 01:01:21.4621	6,0686987E-002	3,1461292E-003
27/08/2025 01:01:38.2621	1,3068911E-001	3,2652738E-003
27/08/2025 01:01:54.9623	-2,1181027E+002	-9,9874586E-002
27/08/2025 01:02:11.7623	-2,1178482E+002	-1,3711207E-001
27/08/2025 01:02:28.5623	-2,1174664E+002	-1,4712720E-001
27/08/2025 01:02:45.3623	-2,1186754E+002	-1,5076792E-001
27/08/2025 01:03:02.1623	-2,1181027E+002	-1,5227437E-001
27/08/2025 01:03:18.9623	-2,1182300E+002	-1,5360218E-001
27/08/2025 01:03:35.7623	-2,1181027E+002	-1,5490307E-001
27/08/2025 01:03:52.4625	2,3861520E+002	4,0710241E-002
27/08/2025 01:04:09.2625	2,3857701E+002	1,3992019E-001
27/08/2025 01:04:26.0625	2,3860883E+002	1,6278100E-001
27/08/2025 01:04:42.8625	2,3854518E+002	1,7047708E-001
27/08/2025 01:04:59.6625	2,3862155E+002	1,7303413E-001
27/08/2025 01:05:16.4625	2,3857701E+002	1,7450088E-001
27/08/2025 01:05:33.2625	2,3864066E+002	1,7599383E-001
27/08/2025 01:05:50.0625	2,3870428E+002	1,7781749E-001
27/08/2025 01:06:06.7629	1,5614443E-001	1,9242235E-002
27/08/2025 01:06:23.5629	1,4341676E-001	7,2133210E-003
27/08/2025 01:06:40.3629	1,1796144E-001	4,1633854E-003
27/08/2025 01:06:57.1629	1,1159762E-001	3,8295970E-003
27/08/2025 01:07:13.9629	1,5614443E-001	3,9944667E-003
27/08/2025 01:07:30.7629	1,4978060E-001	4,1581141E-003
27/08/2025 01:07:47.5629	1,8159975E-001	4,2356211E-003
27/08/2025 01:08:04.2631	-2,3827744E+002	-1,4232539E-001
27/08/2025 01:08:21.0631	-2,3826471E+002	-1,6220571E-001
27/08/2025 01:08:37.8631	-2,3832198E+002	-1,6907407E-001
27/08/2025 01:08:54.6631	-2,3831561E+002	-1,7178369E-001
27/08/2025 01:09:11.4631	-2,3830289E+002	-1,7341733E-001
27/08/2025 01:09:28.2631	-2,3828378E+002	-1,7471039E-001
27/08/2025 01:09:45.0631	-2,3830923E+002	-1,7615984E-001
27/08/2025 01:10:01.7633	2,6510782E+002	1,2801376E-001
27/08/2025 01:10:18.5633	2,6516510E+002	1,7425041E-001
27/08/2025 01:10:35.3633	2,6512689E+002	1,8901376E-001
27/08/2025 01:10:52.1633	2,6514597E+002	1,9420429E-001
27/08/2025 01:11:08.9633	2,6515237E+002	1,9658417E-001
27/08/2025 01:11:25.7633	2,6508871E+002	1,9851986E-001
27/08/2025 01:11:42.5633	2,6508234E+002	2,0046090E-001
27/08/2025 01:11:59.2637	1,0523378E-001	3,8492791E-002
27/08/2025 01:12:16.0637	1,3068911E-001	1,2449651E-002
27/08/2025 01:12:32.8637	1,6250826E-001	6,0345945E-003
27/08/2025 01:12:49.6637	1,5614443E-001	4,7624703E-003
27/08/2025 01:13:06.4637	1,4341676E-001	4,8240097E-003
27/08/2025 01:13:23.2637	1,0523378E-001	5,0166124E-003
27/08/2025 01:13:40.0637	1,6887209E-001	5,1541314E-003
27/08/2025 01:13:56.7639	-2,6484006E+002	-1,3253579E-001
27/08/2025 01:14:13.5639	-2,6473825E+002	-1,7403284E-001
27/08/2025 01:14:30.3639	-2,6483371E+002	-1,8668537E-001
27/08/2025 01:14:47.1639	-2,6475095E+002	-1,9152977E-001
27/08/2025 01:15:03.9639	-2,6480188E+002	-1,9364285E-001
27/08/2025 01:15:20.7639	-2,6477005E+002	-1,9535783E-001
27/08/2025 01:15:37.5639	-2,6476367E+002	-1,9688536E-001
27/08/2025 01:15:54.2641	2,9160043E+002	7,9688922E-002
27/08/2025 01:16:11.0641	2,9159409E+002	1,7727292E-001
27/08/2025 01:16:27.8641	2,9157498E+002	2,0498194E-001
27/08/2025 01:16:44.6641	2,9155588E+002	2,1527040E-001
27/08/2025 01:17:01.4641	2,9158771E+002	2,1949580E-001
27/08/2025 01:17:18.2641	2,9164499E+002	2,2199173E-001
27/08/2025 01:17:35.0641	2,9160678E+002	2,2383380E-001
27/08/2025 01:17:51.7645	2,0069122E-001	1,0144515E-001
27/08/2025 01:18:08.5645	1,1159762E-001	2,2155492E-002
27/08/2025 01:18:25.3645	1,4341676E-001	9,2962319E-003
27/08/2025 01:18:42.1645	1,5614443E-001	5,9797782E-003
27/08/2025 01:18:58.9645	1,0523378E-001	5,6337658E-003
27/08/2025 01:19:15.7645	1,5614443E-001	5,8431765E-003
27/08/2025 01:19:32.5645	9,2506140E-002	6,0366574E-003
27/08/2025 01:19:49.3645	1,4341676E-001	6,1407513E-003
27/08/2025 01:20:06.0647	-2,9135178E+002	-1,7863922E-001
27/08/2025 01:20:22.8647	-2,9135178E+002	-2,0207542E-001
27/08/2025 01:20:39.6647	-2,9133902E+002	-2,1047680E-001
27/08/2025 01:20:56.4647	-2,9135178E+002	-2,1401511E-001
27/08/2025 01:21:13.2647	-2,9125632E+002	-2,1618818E-001
27/08/2025 01:21:30.0647	-2,9137088E+002	-2,1832211E-001
27/08/2025 01:21:46.8647	-2,9136447E+002	-2,2055954E-001
27/08/2025 01:22:03.5649	3,1814395E+002	1,6343765E-001
27/08/2025 01:22:20.3649	3,1818851E+002	2,1602434E-001
27/08/2025 01:22:37.1649	3,1818216E+002	2,3498684E-001
27/08/2025 01:22:53.9649	3,1811215E+002	2,4237664E-001
27/08/2025 01:23:10.7649	3,1810577E+002	2,4575822E-001
27/08/2025 01:23:27.5649	3,1816940E+002	2,4829230E-001
27/08/2025 01:23:44.3649	3,1815033E+002	2,5074476E-001
27/08/2025 01:24:01.0653	1,3068911E-001	4,1383967E-002
27/08/2025 01:24:17.8653	1,8159975E-001	1,4671838E-002
27/08/2025 01:24:34.6653	1,6887209E-001	7,8277616E-003
27/08/2025 01:24:51.4653	1,3068911E-001	6,5512829E-003
27/08/2025 01:25:08.2653	1,3068911E-001	6,6595408E-003
27/08/2025 01:25:25.0653	1,6250826E-001	6,8883188E-003
27/08/2025 01:25:41.8653	1,6887209E-001	7,0519275E-003
27/08/2025 01:25:58.5655	-3,1778708E+002	-1,6772154E-001
27/08/2025 01:26:15.3655	-3,1786984E+002	-2,1328898E-001
27/08/2025 01:26:32.1655	-3,1792709E+002	-2,2810954E-001
27/08/2025 01:26:48.9655	-3,1785712E+002	-2,3388621E-001
27/08/2025 01:27:05.7655	-3,1785074E+002	-2,3711161E-001
27/08/2025 01:27:22.5655	-3,1781256E+002	-2,3995541E-001
27/08/2025 01:27:39.3655	-3,1785712E+002	-2,4287711E-001
27/08/2025 01:27:51.2657	-3,1785712E+002	-2,4456479E-001