File: data/phase_2a/Sergey/1/8.3/02 polarisation/SN50_C5D1E2_mr2_0,1MFeCN6_in_1M_KCl_3306mL_symmetric_balanced_4_point_PEIS_10mHz_200kHz_10mV_02_CP_C16.txt
time/s	I/mA	<Ewe/V>
27/08/2025 00:03:51.2020	1,6250411E-002	-4,1611660E-003
27/08/2025 00:04:02.7020	1,1795843E-002	-4,1627986E-003
27/08/2025 00:04:14.2020	8,6140092E-003	-4,1686432E-003
27/08/2025 00:04:25.7020	1,3068578E-002	-4,1668094E-003
27/08/2025 00:04:37.2020	2,2503431E-003	-4,1739913E-003
27/08/2025 00:04:48.7020	5,4321769E-003	-4,1639828E-003
27/08/2025 00:05:00.2020	7,9776440E-003	-4,1744877E-003
27/08/2025 00:05:11.7020	1,1795843E-002	-4,1642124E-003
27/08/2025 00:05:23.2020	9,2503773E-003	-4,1687577E-003
27/08/2025 00:05:34.7020	1,3704944E-002	-4,1659693E-003
27/08/2025 00:05:46.2020	1,8159511E-002	-4,1715847E-003
27/08/2025 00:05:57.7020	9,8867435E-003	-4,1602775E-003
27/08/2025 00:06:09.2020	4,1594426E-003	-4,1670389E-003
27/08/2025 00:06:20.7020	9,2503773E-003	-4,1587879E-003
27/08/2025 00:06:32.2020	9,8867435E-003	-4,1750227E-003
27/08/2025 00:06:43.7020	4,7958097E-003	-4,1624545E-003
27/08/2025 00:06:55.2020	1,2432210E-002	-4,1737235E-003
27/08/2025 00:07:06.7020	1,4341311E-002	-4,1615763E-003
27/08/2025 00:07:18.2020	1,3704944E-002	-4,1663893E-003
27/08/2025 00:07:29.7020	1,4341311E-002	-4,1631423E-003
27/08/2025 00:07:41.2020	9,2503773E-003	-4,1656638E-003
27/08/2025 00:07:52.7020	1,6139771E-003	-4,1666189E-003
27/08/2025 00:08:04.2020	1,6886778E-002	-4,1675735E-003
27/08/2025 00:08:15.7020	9,8867435E-003	-4,1651288E-003
27/08/2025 00:08:27.2020	2,8867100E-003	-4,1739149E-003
27/08/2025 00:08:38.7020	1,6250411E-002	-4,1662361E-003
27/08/2025 00:08:50.2020	1,0523110E-002	-4,1691400E-003
27/08/2025 00:09:01.7020	1,3068578E-002	-4,1678026E-003
27/08/2025 00:09:13.2020	1,4341311E-002	-4,1737617E-003
27/08/2025 00:09:24.7020	5,4321769E-003	-4,1682227E-003
27/08/2025 00:09:36.2020	1,3704944E-002	-4,1726921E-003
27/08/2025 00:09:47.7020	1,5614044E-002	-4,1681086E-003
27/08/2025 00:09:59.2020	9,2503773E-003	-4,1742199E-003
27/08/2025 00:10:10.7020	9,8867435E-003	-4,1692541E-003
27/08/2025 00:10:22.2020	2,2503431E-003	-4,1688341E-003
27/08/2025 00:10:33.7020	1,1795843E-002	-4,1617677E-003
27/08/2025 00:10:45.2020	1,4977678E-002	-4,1620345E-003
27/08/2025 00:10:56.7020	4,7958097E-003	-4,1609267E-003
27/08/2025 00:11:08.2020	1,3068578E-002	-4,1659311E-003
27/08/2025 00:11:19.7020	1,2432210E-002	-4,1667330E-003
27/08/2025 00:11:31.2020	7,3412773E-003	-4,1671153E-003
27/08/2025 00:11:42.7020	9,2503773E-003	-4,1680704E-003
27/08/2025 00:11:54.2020	1,1159477E-002	-4,1687195E-003
27/08/2025 00:12:05.7020	5,4321769E-003	-4,1705533E-003
27/08/2025 00:12:17.2020	7,9776440E-003	-4,1684522E-003
27/08/2025 00:12:28.7020	9,2503773E-003	-4,1716229E-003
27/08/2025 00:12:40.2020	-2,2042233E-003	-4,1665421E-003
27/08/2025 00:12:51.7020	8,6140092E-003	-4,1660839E-003
27/08/2025 00:13:03.2020	1,4341311E-002	-4,1621877E-003
27/08/2025 00:13:14.7020	1,4977678E-002	-4,1696364E-003
27/08/2025 00:13:26.2020	1,1159477E-002	-4,1674972E-003
27/08/2025 00:13:37.7020	5,4321769E-003	-4,1663893E-003
27/08/2025 00:13:49.2020	2,2503431E-003	-4,1578324E-003
27/08/2025 00:14:00.6546	2,6509470E+001	1,1378495E-002
27/08/2025 00:14:12.1546	2,6511377E+001	1,3363921E-002
27/08/2025 00:14:23.6546	2,6510742E+001	1,4126959E-002
27/08/2025 00:14:35.1546	2,6513287E+001	1,4448753E-002
27/08/2025 00:14:46.6546	2,6511377E+001	1,4613165E-002
27/08/2025 00:14:58.1546	2,6510742E+001	1,4730284E-002
27/08/2025 00:15:09.6546	2,6507559E+001	1,4818487E-002
27/08/2025 00:15:21.1546	2,6513922E+001	1,4895345E-002
27/08/2025 00:15:32.6546	2,6513922E+001	1,4942598E-002
27/08/2025 00:15:44.1546	2,6504377E+001	1,5031832E-002
27/08/2025 00:15:55.5548	4,7958097E-003	1,5218041E-003
27/08/2025 00:16:07.0548	1,6250411E-002	-1,6216823E-003
27/08/2025 00:16:18.5548	7,9776440E-003	-2,6562430E-003
27/08/2025 00:16:30.0548	1,5614044E-002	-3,0636804E-003
27/08/2025 00:16:41.5548	8,6140092E-003	-3,1938648E-003
27/08/2025 00:16:53.0548	9,2503773E-003	-3,2147982E-003
27/08/2025 00:17:04.5548	9,8867435E-003	-3,2015047E-003
27/08/2025 00:17:16.0548	1,4977678E-002	-3,1988306E-003
27/08/2025 00:17:27.5548	5,4321769E-003	-3,1814498E-003
27/08/2025 00:17:39.0548	1,4341311E-002	-3,1851172E-003
27/08/2025 00:17:50.5548	1,3704944E-002	-3,1697990E-003
27/08/2025 00:18:01.9550	-2,6485874E+001	-1,9010501E-002
27/08/2025 00:18:13.4550	-2,6490965E+001	-2,0776395E-002
27/08/2025 00:18:24.9550	-2,6479511E+001	-2,1501424E-002
27/08/2025 00:18:36.4550	-2,6483963E+001	-2,1810651E-002
27/08/2025 00:18:47.9550	-2,6483328E+001	-2,1933805E-002
27/08/2025 00:18:59.4550	-2,6480146E+001	-2,2043934E-002
27/08/2025 00:19:10.9550	-2,6482693E+001	-2,2142412E-002
27/08/2025 00:19:22.4550	-2,6480783E+001	-2,2237951E-002
27/08/2025 00:19:33.9550	-2,6484600E+001	-2,2291545E-002
27/08/2025 00:19:45.4550	-2,6482693E+001	-2,2354688E-002
27/08/2025 00:19:56.8552	5,3015415E+001	2,0204712E-002
27/08/2025 00:20:08.3552	5,3012230E+001	2,8571961E-002
27/08/2025 00:20:19.8552	5,3015415E+001	3,1484265E-002
27/08/2025 00:20:31.3552	5,3010323E+001	3,2746721E-002
27/08/2025 00:20:42.8552	5,3010323E+001	3,3348594E-002
27/08/2025 00:20:54.3552	5,3015415E+001	3,3637311E-002
27/08/2025 00:21:05.8552	5,3012867E+001	3,3787776E-002
27/08/2025 00:21:17.3552	5,3019871E+001	3,3888396E-002
27/08/2025 00:21:28.8552	5,3014778E+001	3,4031760E-002
27/08/2025 00:21:40.3552	5,3014145E+001	3,4257594E-002
27/08/2025 00:21:51.7556	1,3704944E-002	1,3354792E-002
27/08/2025 00:22:03.2556	1,6139771E-003	2,2506914E-003
27/08/2025 00:22:14.7556	9,2503773E-003	-6,6650030E-004
27/08/2025 00:22:26.2556	1,2432210E-002	-1,7628300E-003
27/08/2025 00:22:37.7556	1,2432210E-002	-2,1736289E-003
27/08/2025 00:22:49.2556	8,6140092E-003	-2,2765768E-003
27/08/2025 00:23:00.7556	7,9776440E-003	-2,2607241E-003
27/08/2025 00:23:12.2556	1,1795843E-002	-2,2399817E-003
27/08/2025 00:23:23.7556	1,1159477E-002	-2,2087342E-003
27/08/2025 00:23:35.2556	1,2432210E-002	-2,1952116E-003
27/08/2025 00:23:46.7556	9,2503773E-003	-2,1781744E-003
27/08/2025 00:23:58.1558	-5,2977814E+001	-3,1597588E-002
27/08/2025 00:24:09.6558	-5,2975906E+001	-3,6662094E-002
27/08/2025 00:24:21.1558	-5,2981636E+001	-3,8521234E-002
27/08/2025 00:24:32.6558	-5,2973358E+001	-3,9311316E-002
27/08/2025 00:24:44.1558	-5,2973995E+001	-3,9707486E-002
27/08/2025 00:24:55.6558	-5,2973995E+001	-3,9971482E-002
27/08/2025 00:25:07.1558	-5,2977180E+001	-4,0167522E-002
27/08/2025 00:25:18.6558	-5,2980358E+001	-4,0288426E-002
27/08/2025 00:25:30.1558	-5,2977180E+001	-4,0385187E-002
27/08/2025 00:25:41.6558	-5,2972725E+001	-4,0601663E-002
27/08/2025 00:25:53.0560	7,9513718E+001	1,9159952E-002
27/08/2025 00:26:04.5560	7,9506721E+001	4,1128449E-002
27/08/2025 00:26:16.0560	7,9505440E+001	4,7898725E-002
27/08/2025 00:26:27.5560	7,9516266E+001	5,0719921E-002
27/08/2025 00:26:39.0560	7,9516266E+001	5,2029710E-002
27/08/2025 00:26:50.5560	7,9518806E+001	5,2537996E-002
27/08/2025 00:27:02.0560	7,9512444E+001	5,2715164E-002
27/08/2025 00:27:13.5559	7,9505440E+001	5,2932441E-002
27/08/2025 00:27:25.0559	7,9509903E+001	5,3216457E-002
27/08/2025 00:27:36.5559	7,9509903E+001	5,3519152E-002
27/08/2025 00:27:48.0559	7,9509262E+001	5,3744875E-002
27/08/2025 00:27:59.4563	6,0685435E-003	8,3119432E-003
27/08/2025 00:28:10.9563	1,2432210E-002	2,0833388E-003
27/08/2025 00:28:22.4563	8,6140092E-003	-1,6027871E-004
27/08/2025 00:28:33.9563	6,0685435E-003	-1,0452879E-003
27/08/2025 00:28:45.4563	9,2503773E-003	-1,2939676E-003
27/08/2025 00:28:56.9563	9,8867435E-003	-1,3234577E-003
27/08/2025 00:29:08.4563	1,0523110E-002	-1,2799101E-003
27/08/2025 00:29:19.9563	9,2503773E-003	-1,2482426E-003
27/08/2025 00:29:31.4563	1,4977678E-002	-1,2081329E-003
27/08/2025 00:29:42.9563	1,5614044E-002	-1,1910578E-003
27/08/2025 00:29:54.3565	-7,9475487E+001	-3,9857723E-002
27/08/2025 00:30:05.8565	-7,9473579E+001	-5,1218908E-002
27/08/2025 00:30:17.3565	-7,9469124E+001	-5,5008732E-002
27/08/2025 00:30:28.8565	-7,9465935E+001	-5,6673285E-002
27/08/2025 00:30:40.3565	-7,9472939E+001	-5,7550266E-002
27/08/2025 00:30:51.8565	-7,9467842E+001	-5,7996061E-002
27/08/2025 00:31:03.3565	-7,9474213E+001	-5,8251537E-002
27/08/2025 00:31:14.8565	-7,9466583E+001	-5,8396582E-002
27/08/2025 00:31:26.3565	-7,9471031E+001	-5,8649961E-002
27/08/2025 00:31:37.8565	-7,9476120E+001	-5,9000786E-002
27/08/2025 00:31:49.3565	-7,9475487E+001	-5,9323687E-002
27/08/2025 00:32:00.7567	1,0601713E+002	4,9435034E-002
27/08/2025 00:32:12.2567	1,0601266E+002	6,2897697E-002
27/08/2025 00:32:23.7567	1,0600885E+002	6,8143919E-002
27/08/2025 00:32:35.2567	1,0600949E+002	7,0504434E-002
27/08/2025 00:32:46.7567	1,0601266E+002	7,1345516E-002
27/08/2025 00:32:58.2567	1,0602029E+002	7,1788855E-002
27/08/2025 00:33:09.7567	1,0601076E+002	7,2215393E-002
27/08/2025 00:33:21.2567	1,0601713E+002	7,2601594E-002
27/08/2025 00:33:32.7567	1,0601648E+002	7,2944663E-002
27/08/2025 00:33:44.2567	1,0601776E+002	7,3160723E-002
27/08/2025 00:33:55.6571	1,1159477E-002	1,8492758E-002
27/08/2025 00:34:07.1571	1,0523110E-002	6,0208049E-003
27/08/2025 00:34:18.6571	4,1594426E-003	1,8834019E-003
27/08/2025 00:34:30.1571	8,6140092E-003	2,7324897E-004
27/08/2025 00:34:41.6571	1,4977678E-002	-2,8542071E-004
27/08/2025 00:34:53.1571	1,1159477E-002	-3,8256240E-004
27/08/2025 00:35:04.6571	9,2503773E-003	-3,5364527E-004
27/08/2025 00:35:16.1571	9,8867435E-003	-3,0070057E-004
27/08/2025 00:35:27.6571	9,8867435E-003	-2,5077368E-004
27/08/2025 00:35:39.1571	6,7049102E-003	-2,1566819E-004
27/08/2025 00:35:50.6571	1,3704944E-002	-1,9156422E-004
27/08/2025 00:36:02.0573	-1,0596997E+002	-6,3653804E-002
27/08/2025 00:36:13.5573	-1,0596870E+002	-7,0916966E-002
27/08/2025 00:36:25.0573	-1,0597507E+002	-7,3946089E-002
27/08/2025 00:36:36.5573	-1,0597570E+002	-7,5471699E-002
27/08/2025 00:36:48.0573	-1,0597570E+002	-7,6044396E-002
27/08/2025 00:36:59.5573	-1,0597314E+002	-7,6325014E-002
27/08/2025 00:37:11.0573	-1,0597124E+002	-7,6727405E-002
27/08/2025 00:37:22.5573	-1,0597888E+002	-7,7129833E-002
27/08/2025 00:37:34.0573	-1,0596933E+002	-7,7560425E-002
27/08/2025 00:37:45.5573	-1,0596933E+002	-7,7823311E-002
27/08/2025 00:37:51.1575	-1,0597251E+002	-7,8014381E-002