File: data/phase_2a/Sergey/2/3.3/02 polarisation/SN50_C6aD1E1_lr 0,1MFeCN6_in_1M_KCl_3306mL_symmetric_balanced_4_point_PEIS_10mHz_200kHz_10mV_03_CP_C16.txt
time/s	I/mA	<Ewe/V>
30/08/2025 16:39:36.9187	9,2506140E-002	-8,5116394E-002
30/08/2025 16:39:51.9187	8,6142294E-002	-5,0569784E-002
30/08/2025 16:40:06.9187	4,1595493E-002	-3,9912350E-002
30/08/2025 16:40:21.9187	9,2506140E-002	-3,3192728E-002
30/08/2025 16:40:36.9187	8,6142294E-002	-2,8386449E-002
30/08/2025 16:40:51.9187	1,4341676E-001	-2,4804890E-002
30/08/2025 16:41:06.9187	1,1159762E-001	-2,2025293E-002
30/08/2025 16:41:21.9187	1,0523378E-001	-1,9799819E-002
30/08/2025 16:41:36.9185	6,7050815E-002	-1,7977877E-002
30/08/2025 16:41:51.9185	1,3260016E+002	7,7354081E-002
30/08/2025 16:42:06.9185	1,3257471E+002	9,6143417E-002
30/08/2025 16:42:21.9185	1,3261288E+002	1,0981984E-001
30/08/2025 16:42:36.9185	1,3251108E+002	1,2060723E-001
30/08/2025 16:42:51.9185	1,3253015E+002	1,2967902E-001
30/08/2025 16:43:06.9185	1,3254289E+002	1,3761981E-001
30/08/2025 16:43:21.9185	1,3260652E+002	1,4497940E-001
30/08/2025 16:43:36.9185	1,3258107E+002	1,5215687E-001
30/08/2025 16:43:51.8187	7,3414646E-002	5,2841298E-002
30/08/2025 16:44:06.8187	1,8159975E-001	3,9584037E-002
30/08/2025 16:44:21.8187	1,1796144E-001	3,1308278E-002
30/08/2025 16:44:36.8187	9,2506140E-002	2,5369111E-002
30/08/2025 16:44:51.8187	1,5614443E-001	2,0916563E-002
30/08/2025 16:45:06.8187	8,6142294E-002	1,7426757E-002
30/08/2025 16:45:21.8187	1,0523378E-001	1,4622026E-002
30/08/2025 16:45:36.8187	1,1159762E-001	1,2281993E-002
30/08/2025 16:45:51.7189	-1,3243423E+002	-8,2724102E-002
30/08/2025 16:46:06.7189	-1,3245969E+002	-1,0256759E-001
30/08/2025 16:46:21.7189	-1,3245332E+002	-1,1730886E-001
30/08/2025 16:46:36.7189	-1,3239604E+002	-1,2930638E-001
30/08/2025 16:46:51.7189	-1,3235150E+002	-1,3965459E-001
30/08/2025 16:47:06.7189	-1,3240878E+002	-1,4885801E-001
30/08/2025 16:47:21.7189	-1,3242149E+002	-1,5738797E-001
30/08/2025 16:47:36.7189	-1,3233878E+002	-1,6558893E-001
30/08/2025 16:47:51.6191	1,5906734E+002	5,3228032E-002
30/08/2025 16:48:06.6191	1,5908005E+002	8,5984074E-002
30/08/2025 16:48:21.6191	1,5911188E+002	1,0887994E-001
30/08/2025 16:48:36.6191	1,5907368E+002	1,2670580E-001
30/08/2025 16:48:51.6191	1,5912460E+002	1,4114992E-001
30/08/2025 16:49:06.6191	1,5904185E+002	1,5333606E-001
30/08/2025 16:49:21.6191	1,5915642E+002	1,6428378E-001
30/08/2025 16:49:36.6191	1,5908643E+002	1,7467816E-001
30/08/2025 16:49:51.5195	7,9778478E-002	5,5313617E-002
30/08/2025 16:50:06.5195	1,3068911E-001	4,0404949E-002
30/08/2025 16:50:21.5195	3,5231672E-002	3,1436246E-002
30/08/2025 16:50:36.5195	1,6250826E-001	2,5255583E-002
30/08/2025 16:50:51.5195	4,1595493E-002	2,0787332E-002
30/08/2025 16:51:06.5195	9,8869957E-002	1,7431306E-002
30/08/2025 16:51:21.5195	1,1159762E-001	1,4799196E-002
30/08/2025 16:51:36.5195	7,9778478E-002	1,2632398E-002
30/08/2025 16:51:51.4197	-1,5886957E+002	-1,0025181E-001
30/08/2025 16:52:06.4197	-1,5888231E+002	-1,2476414E-001
30/08/2025 16:52:21.4197	-1,5886320E+002	-1,4328848E-001
30/08/2025 16:52:36.4197	-1,5888231E+002	-1,5848720E-001
30/08/2025 16:52:51.4197	-1,5897139E+002	-1,7176355E-001
30/08/2025 16:53:06.4197	-1,5890776E+002	-1,8399459E-001
30/08/2025 16:53:21.4197	-1,5890776E+002	-1,9625174E-001
30/08/2025 16:53:36.4197	-1,5890138E+002	-2,1029638E-001
30/08/2025 16:53:51.3199	1,8559177E+002	5,9430160E-002
30/08/2025 16:54:06.3199	1,8563631E+002	9,8780602E-002
30/08/2025 16:54:21.3199	1,8557903E+002	1,2685803E-001
30/08/2025 16:54:36.3199	1,8561722E+002	1,4931189E-001
30/08/2025 16:54:51.3199	1,8564267E+002	1,6797496E-001
30/08/2025 16:55:06.3199	1,8565540E+002	1,8385872E-001
30/08/2025 16:55:21.3199	1,8562994E+002	1,9830102E-001
30/08/2025 16:55:36.3199	1,8561086E+002	2,1270151E-001
30/08/2025 16:55:51.2203	1,3705294E-001	6,7171052E-002
30/08/2025 16:56:06.2203	8,6142294E-002	4,9418878E-002
30/08/2025 16:56:21.2203	1,7523590E-001	3,8759805E-002
30/08/2025 16:56:36.2203	1,3705294E-001	3,1391781E-002
30/08/2025 16:56:51.2203	1,3068911E-001	2,6035810E-002
30/08/2025 16:57:06.2203	1,0523378E-001	2,2034857E-002
30/08/2025 16:57:21.2203	7,9778478E-002	1,8895764E-002
30/08/2025 16:57:36.2203	1,1159762E-001	1,6315684E-002
30/08/2025 16:57:51.1205	-1,8538765E+002	-1,1503614E-001
30/08/2025 16:58:06.1205	-1,8538765E+002	-1,4460438E-001
30/08/2025 16:58:21.1205	-1,8536855E+002	-1,6738245E-001
30/08/2025 16:58:36.1205	-1,8532401E+002	-1,8670541E-001
30/08/2025 16:58:51.1205	-1,8533673E+002	-2,0412208E-001
30/08/2025 16:59:06.1205	-1,8536220E+002	-2,2116059E-001
30/08/2025 16:59:21.1205	-1,8533037E+002	-2,4089791E-001
30/08/2025 16:59:36.1205	-1,8533673E+002	-2,7669200E-001
30/08/2025 16:59:51.0207	2,1212257E+002	6,5113768E-002
30/08/2025 17:00:06.0207	2,1209712E+002	1,1186769E-001
30/08/2025 17:00:21.0207	2,1216711E+002	1,4531438E-001
30/08/2025 17:00:36.0207	2,1205257E+002	1,7247839E-001
30/08/2025 17:00:51.0207	2,1216077E+002	1,9549574E-001
30/08/2025 17:01:06.0207	2,1212894E+002	2,1593870E-001
30/08/2025 17:01:21.0207	2,1218620E+002	2,3551609E-001
30/08/2025 17:01:36.0207	2,1217984E+002	2,5697359E-001
30/08/2025 17:01:50.9211	8,6142294E-002	8,0606438E-002
30/08/2025 17:02:05.9211	1,1796144E-001	5,9625898E-002
30/08/2025 17:02:20.9211	1,1159762E-001	4,6978876E-002
30/08/2025 17:02:35.9211	1,3705294E-001	3,8147312E-002
30/08/2025 17:02:50.9211	1,5614443E-001	3,1687640E-002
30/08/2025 17:03:05.9211	1,4978060E-001	2,6862489E-002
30/08/2025 17:03:20.9211	7,9778478E-002	2,3112850E-002
30/08/2025 17:03:35.9211	4,7959324E-002	2,0065438E-002
30/08/2025 17:03:50.8213	-2,1187392E+002	-1,2924965E-001
30/08/2025 17:04:05.8213	-2,1180389E+002	-1,6454753E-001
30/08/2025 17:04:20.8213	-2,1179117E+002	-1,9244464E-001
30/08/2025 17:04:35.8213	-2,1182300E+002	-2,1687645E-001
30/08/2025 17:04:50.8213	-2,1181664E+002	-2,4002634E-001
30/08/2025 17:05:05.8213	-2,1177846E+002	-2,6489958E-001
30/08/2025 17:05:20.8213	-2,1181664E+002	-3,0683815E-001
30/08/2025 17:05:35.8213	-2,1176572E+002	-5,7850444E-001
30/08/2025 17:05:50.7215	2,3864700E+002	6,9154955E-002
30/08/2025 17:06:05.7215	2,3860246E+002	1,2305483E-001
30/08/2025 17:06:20.7215	2,3857701E+002	1,6217160E-001
30/08/2025 17:06:35.7215	2,3856429E+002	1,9465803E-001
30/08/2025 17:06:50.7215	2,3848155E+002	2,2317173E-001
30/08/2025 17:07:05.7215	2,3857063E+002	2,4988171E-001
30/08/2025 17:07:20.7215	2,3858974E+002	2,7879301E-001
30/08/2025 17:07:35.7215	2,3855156E+002	3,1656098E-001
30/08/2025 17:07:50.6219	5,4323155E-002	9,7451985E-002
30/08/2025 17:08:05.6219	1,6250826E-001	7,1628340E-002
30/08/2025 17:08:20.6219	1,3068911E-001	5,6040403E-002
30/08/2025 17:08:35.6219	1,0523378E-001	4,5257408E-002
30/08/2025 17:08:50.6219	2,2504006E-002	3,7473086E-002
30/08/2025 17:09:05.6219	9,2506140E-002	3,1735770E-002
30/08/2025 17:09:20.6219	1,1796144E-001	2,7335782E-002
30/08/2025 17:09:35.6219	9,2506140E-002	2,3803690E-002
30/08/2025 17:09:50.5221	-2,3834743E+002	-1,4317140E-001
30/08/2025 17:10:05.5221	-2,3834106E+002	-1,8498884E-001
30/08/2025 17:10:20.5221	-2,3836652E+002	-2,1844178E-001
30/08/2025 17:10:35.5221	-2,3829016E+002	-2,4835689E-001
30/08/2025 17:10:50.5221	-2,3824561E+002	-2,7853626E-001
30/08/2025 17:11:05.5221	-2,3834106E+002	-3,1989560E-001
30/08/2025 17:11:20.5221	-2,3833472E+002	-4,8190337E-001
30/08/2025 17:11:35.1941	2,6508871E+002	5,5292606E-002
30/08/2025 17:11:50.1941	2,6512054E+002	1,2512402E-001
30/08/2025 17:12:05.1941	2,6508871E+002	1,7279878E-001
30/08/2025 17:12:20.1941	2,6508871E+002	2,1283482E-001
30/08/2025 17:12:35.1941	2,6510147E+002	2,4872741E-001
30/08/2025 17:12:50.1941	2,6513962E+002	2,8399062E-001
30/08/2025 17:13:05.1941	2,6503146E+002	3,3299041E-001
30/08/2025 17:13:20.1941	2,6508871E+002	4,2714176E-001
30/08/2025 17:13:35.0943	9,8869957E-002	1,4352632E-001
30/08/2025 17:13:50.0943	7,9778478E-002	9,9824145E-002
30/08/2025 17:14:05.0943	4,1595493E-002	7,6389238E-002
30/08/2025 17:14:20.0943	9,8869957E-002	6,0699042E-002
30/08/2025 17:14:35.0943	9,2506140E-002	4,9568389E-002
30/08/2025 17:14:50.0943	1,1796144E-001	4,1544218E-002
30/08/2025 17:15:05.0943	4,7959324E-002	3,5581592E-002
30/08/2025 17:15:20.0943	9,2506140E-002	3,0986255E-002
30/08/2025 17:15:34.9945	-2,6485913E+002	-1,3688660E-001
30/08/2025 17:15:49.9945	-2,6471277E+002	-1,9018444E-001
30/08/2025 17:16:04.9945	-2,6479550E+002	-2,3147279E-001
30/08/2025 17:16:19.9945	-2,6478278E+002	-2,6842308E-001
30/08/2025 17:16:34.9945	-2,6480823E+002	-3,0680162E-001
30/08/2025 17:16:49.9945	-2,6478278E+002	-3,7168068E-001
30/08/2025 17:17:04.9945	-2,6479550E+002	-6,5871805E-001
30/08/2025 17:17:19.7315	2,9149860E+002	9,6803732E-002
30/08/2025 17:17:34.7315	2,9153680E+002	1,6174690E-001
30/08/2025 17:17:49.7315	2,9156860E+002	2,1315761E-001
30/08/2025 17:18:04.7315	2,9159409E+002	2,5904974E-001
30/08/2025 17:18:19.7315	2,9163226E+002	3,0330744E-001
30/08/2025 17:18:34.7315	2,9154950E+002	3,7679666E-001
30/08/2025 17:18:49.7315	2,9152408E+002	5,4455429E-001
30/08/2025 17:19:04.6005	-2,9131360E+002	-3,9504532E-002
30/08/2025 17:19:19.6005	-2,9127539E+002	-1,2400748E-001
30/08/2025 17:19:34.6005	-2,9128812E+002	-1,7890410E-001
30/08/2025 17:19:49.6005	-2,9137723E+002	-2,2720139E-001
30/08/2025 17:20:04.6005	-2,9135178E+002	-2,7251995E-001
30/08/2025 17:20:19.6005	-2,9142175E+002	-3,1966868E-001
30/08/2025 17:20:34.6005	-2,9133902E+002	-4,1950786E-001
30/08/2025 17:20:49.6005	-2,9141541E+002	-6,5039498E-001
30/08/2025 17:21:04.2515	3,1825851E+002	8,2798488E-002
30/08/2025 17:21:19.2515	3,1817581E+002	1,6117139E-001
30/08/2025 17:21:34.2515	3,1813126E+002	2,2095959E-001
30/08/2025 17:21:49.2515	3,1822668E+002	2,7508509E-001
30/08/2025 17:22:04.2515	3,1818216E+002	3,2778537E-001
30/08/2025 17:22:19.2515	3,1816302E+002	4,2383221E-001
30/08/2025 17:22:34.2515	3,1812488E+002	7,2438890E-001
30/08/2025 17:22:49.0657	-3,1787619E+002	-1,0161657E-001
30/08/2025 17:23:04.0657	-3,1785074E+002	-1,7092626E-001
30/08/2025 17:23:19.0657	-3,1791440E+002	-2,2812214E-001
30/08/2025 17:23:34.0657	-3,1781894E+002	-2,8221869E-001
30/08/2025 17:23:49.0657	-3,1789529E+002	-3,3740085E-001
30/08/2025 17:24:04.0657	-3,1788254E+002	-4,7162902E-001
30/08/2025 17:24:18.6051	-1,5568320E-001	-6,3823253E-001