File: data/phase_2a/Sergey/2/3.3/02 polarisation/SN50_C6aD1E1_lr 0,1MFeCN6_in_1M_KCl_3306mL_symmetric_balanced_4_point_PEIS_10mHz_200kHz_10mV_02_CP_C16.txt
time/s	I/mA	<Ewe/V>
30/08/2025 16:05:36.8610	7,3412773E-003	-6,7416439E-003
30/08/2025 16:05:48.2610	7,9776440E-003	-6,7407778E-003
30/08/2025 16:05:59.6610	4,7958097E-003	-6,7418092E-003
30/08/2025 16:06:11.0610	1,1159477E-002	-6,7479592E-003
30/08/2025 16:06:22.4610	4,7958097E-003	-6,7476537E-003
30/08/2025 16:06:33.8610	9,2503773E-003	-6,7509767E-003
30/08/2025 16:06:45.2610	5,4321769E-003	-6,7545678E-003
30/08/2025 16:06:56.6610	3,4124311E-004	-6,7541478E-003
30/08/2025 16:07:08.0610	7,9776440E-003	-6,7531923E-003
30/08/2025 16:07:19.4610	9,7761012E-004	-6,7491434E-003
30/08/2025 16:07:30.8610	1,1159477E-002	-6,7616343E-003
30/08/2025 16:07:42.2610	9,2503773E-003	-6,7662182E-003
30/08/2025 16:07:53.6610	1,3704944E-002	-6,7551406E-003
30/08/2025 16:08:05.0610	3,4124311E-004	-6,7471568E-003
30/08/2025 16:08:16.4610	4,7958097E-003	-6,7545297E-003
30/08/2025 16:08:27.8610	9,2503773E-003	-6,7533832E-003
30/08/2025 16:08:39.2610	7,9776440E-003	-6,7622457E-003
30/08/2025 16:08:50.6610	4,7958097E-003	-6,7604887E-003
30/08/2025 16:09:02.0610	8,6140092E-003	-6,7537650E-003
30/08/2025 16:09:13.4610	1,1159477E-002	-6,7583495E-003
30/08/2025 16:09:24.8610	3,5230771E-003	-6,7598009E-003
30/08/2025 16:09:36.2610	6,7049102E-003	-6,7609851E-003
30/08/2025 16:09:47.6610	4,1594426E-003	-6,7605269E-003
30/08/2025 16:09:59.0610	2,8867100E-003	-6,7593809E-003
30/08/2025 16:10:10.4610	2,8867100E-003	-6,7632389E-003
30/08/2025 16:10:21.8610	8,6140092E-003	-6,7594573E-003
30/08/2025 16:10:33.2610	6,7049102E-003	-6,7581963E-003
30/08/2025 16:10:44.6610	3,5230771E-003	-6,7609469E-003
30/08/2025 16:10:56.0610	7,3412773E-003	-6,7604887E-003
30/08/2025 16:11:07.4610	9,7761012E-004	-6,7660655E-003
30/08/2025 16:11:18.8610	2,8867100E-003	-6,7633917E-003
30/08/2025 16:11:30.2610	1,4341311E-002	-6,7588841E-003
30/08/2025 16:11:41.6610	3,5230771E-003	-6,7643849E-003
30/08/2025 16:11:53.0610	9,2503773E-003	-6,7632007E-003
30/08/2025 16:12:04.4610	4,7958097E-003	-6,7648431E-003
30/08/2025 16:12:15.8610	7,3412773E-003	-6,7610997E-003
30/08/2025 16:12:27.2610	2,2503431E-003	-6,7622839E-003
30/08/2025 16:12:38.6610	7,9776440E-003	-6,7659896E-003
30/08/2025 16:12:50.0610	1,4977678E-002	-6,7685866E-003
30/08/2025 16:13:01.4610	7,9776440E-003	-6,7673647E-003
30/08/2025 16:13:12.8610	8,6140092E-003	-6,7639267E-003
30/08/2025 16:13:24.2610	4,1594426E-003	-6,7694657E-003
30/08/2025 16:13:35.6610	7,9776440E-003	-6,7695417E-003
30/08/2025 16:13:47.0610	4,7958097E-003	-6,7648431E-003
30/08/2025 16:13:58.4610	6,7049102E-003	-6,7621693E-003
30/08/2025 16:14:09.8610	2,2503431E-003	-6,7611379E-003
30/08/2025 16:14:21.2610	6,0685435E-003	-6,7633917E-003
30/08/2025 16:14:32.6610	1,6139771E-003	-6,7583113E-003
30/08/2025 16:14:44.0610	6,7049102E-003	-6,7592277E-003
30/08/2025 16:14:55.4610	3,5230771E-003	-6,7682047E-003
30/08/2025 16:15:06.8610	8,6140092E-003	-6,7691216E-003
30/08/2025 16:15:18.2610	7,9776440E-003	-6,7631626E-003
30/08/2025 16:15:29.6610	5,4321769E-003	-6,7670969E-003
30/08/2025 16:15:41.0136	2,6507559E+001	7,7033839E-003
30/08/2025 16:15:52.4136	2,6506285E+001	1,2072696E-002
30/08/2025 16:16:03.8136	2,6503742E+001	1,4665841E-002
30/08/2025 16:16:15.2136	2,6502468E+001	1,6521275E-002
30/08/2025 16:16:26.6136	2,6505014E+001	1,7998224E-002
30/08/2025 16:16:38.0136	2,6504377E+001	1,9203423E-002
30/08/2025 16:16:49.4136	2,6506924E+001	2,0245204E-002
30/08/2025 16:17:00.8136	2,6513922E+001	2,1120662E-002
30/08/2025 16:17:12.2136	2,6506924E+001	2,1853905E-002
30/08/2025 16:17:23.6136	2,6506285E+001	2,2471134E-002
30/08/2025 16:17:35.0136	2,6502468E+001	2,3033129E-002
30/08/2025 16:17:46.3138	3,5230771E-003	6,6376524E-003
30/08/2025 16:17:57.7138	6,7049102E-003	3,9059201E-003
30/08/2025 16:18:09.1138	8,6140092E-003	2,1529768E-003
30/08/2025 16:18:20.5138	6,7049102E-003	8,6286041E-004
30/08/2025 16:18:31.9138	1,3704944E-002	-1,3296597E-004
30/08/2025 16:18:43.3138	3,5230771E-003	-8,9959451E-004
30/08/2025 16:18:54.7138	7,9776440E-003	-1,5202622E-003
30/08/2025 16:19:06.1138	1,0523110E-002	-2,0385929E-003
30/08/2025 16:19:17.5138	1,6139771E-003	-2,4671166E-003
30/08/2025 16:19:28.9138	1,0523110E-002	-2,8401741E-003
30/08/2025 16:19:40.2140	-2,6488420E+001	-1,7134365E-002
30/08/2025 16:19:51.6140	-2,6484600E+001	-2,2094434E-002
30/08/2025 16:20:03.0140	-2,6478872E+001	-2,5010748E-002
30/08/2025 16:20:14.4140	-2,6485235E+001	-2,7173573E-002
30/08/2025 16:20:25.8140	-2,6480783E+001	-2,8932285E-002
30/08/2025 16:20:37.2140	-2,6482693E+001	-3,0371724E-002
30/08/2025 16:20:48.6140	-2,6486509E+001	-3,1642929E-002
30/08/2025 16:21:00.0140	-2,6483328E+001	-3,2688722E-002
30/08/2025 16:21:11.4140	-2,6488420E+001	-3,3575986E-002
30/08/2025 16:21:22.8140	-2,6482693E+001	-3,4364615E-002
30/08/2025 16:21:34.2140	-2,6487783E+001	-3,5095450E-002
30/08/2025 16:21:45.5142	5,3012867E+001	1,4462466E-002
30/08/2025 16:21:56.9142	5,3012867E+001	2,3943348E-002
30/08/2025 16:22:08.3142	5,3007774E+001	3,0127833E-002
30/08/2025 16:22:19.7142	5,3015415E+001	3,4785554E-002
30/08/2025 16:22:31.1142	5,3015415E+001	3,8479380E-002
30/08/2025 16:22:42.5142	5,3005867E+001	4,1589100E-002
30/08/2025 16:22:53.9142	5,3012867E+001	4,4101644E-002
30/08/2025 16:23:05.3142	5,3011597E+001	4,6178363E-002
30/08/2025 16:23:16.7142	5,3009045E+001	4,7984216E-002
30/08/2025 16:23:28.1142	5,3003960E+001	4,9607087E-002
30/08/2025 16:23:39.4146	1,1159477E-002	2,3926655E-002
30/08/2025 16:23:50.8146	9,2503773E-003	1,5308244E-002
30/08/2025 16:24:02.2146	8,6140092E-003	1,1054371E-002
30/08/2025 16:24:13.6146	5,4321769E-003	8,2057090E-003
30/08/2025 16:24:25.0146	4,1594426E-003	6,1054933E-003
30/08/2025 16:24:36.4146	6,7049102E-003	4,5187566E-003
30/08/2025 16:24:47.8146	1,0523110E-002	3,2899126E-003
30/08/2025 16:24:59.2146	1,6139771E-003	2,3010767E-003
30/08/2025 16:25:10.6146	2,2503431E-003	1,4727176E-003
30/08/2025 16:25:22.0146	-2,2042233E-003	7,7316765E-004
30/08/2025 16:25:33.4146	7,9776440E-003	1,8729980E-004
30/08/2025 16:25:44.7148	-5,2978451E+001	-3,2987710E-002
30/08/2025 16:25:56.1148	-5,2986092E+001	-4,0468004E-002
30/08/2025 16:26:07.5148	-5,2975906E+001	-4,5600239E-002
30/08/2025 16:26:18.9148	-5,2979729E+001	-4,9581710E-002
30/08/2025 16:26:30.3148	-5,2978451E+001	-5,2895755E-002
30/08/2025 16:26:41.7148	-5,2978451E+001	-5,5725127E-002
30/08/2025 16:26:53.1148	-5,2983543E+001	-5,8026809E-002
30/08/2025 16:27:04.5148	-5,2978451E+001	-6,0038403E-002
30/08/2025 16:27:15.9148	-5,2976543E+001	-6,1790545E-002
30/08/2025 16:27:27.3148	-5,2977814E+001	-6,3460290E-002
30/08/2025 16:27:38.6150	7,9507996E+001	5,2246341E-004
30/08/2025 16:27:50.0150	7,9507996E+001	2,6288347E-002
30/08/2025 16:28:01.4150	7,9514992E+001	3,9113495E-002
30/08/2025 16:28:12.8150	7,9511810E+001	4,8132885E-002
30/08/2025 16:28:24.2150	7,9503532E+001	5,5162232E-002
30/08/2025 16:28:35.6150	7,9513718E+001	6,0936682E-002
30/08/2025 16:28:47.0149	7,9507347E+001	6,5538548E-002
30/08/2025 16:28:58.4149	7,9506721E+001	6,9388658E-002
30/08/2025 16:29:09.8149	7,9509903E+001	7,2661482E-002
30/08/2025 16:29:21.2149	7,9509262E+001	7,5656228E-002
30/08/2025 16:29:32.6149	7,9511810E+001	7,8482918E-002
30/08/2025 16:29:43.9153	1,0523110E-002	3,1491596E-002
30/08/2025 16:29:55.3153	3,5230771E-003	2,2481373E-002
30/08/2025 16:30:06.7153	1,6139771E-003	1,7221969E-002
30/08/2025 16:30:18.1153	6,7049102E-003	1,3575776E-002
30/08/2025 16:30:29.5153	1,1159477E-002	1,0907340E-002
30/08/2025 16:30:40.9153	1,4341311E-002	8,8451328E-003
30/08/2025 16:30:52.3153	2,2503431E-003	7,2229854E-003
30/08/2025 16:31:03.7153	9,2503773E-003	5,9053274E-003
30/08/2025 16:31:15.1153	4,7958097E-003	4,8235515E-003
30/08/2025 16:31:26.5153	4,1594426E-003	3,9079064E-003
30/08/2025 16:31:37.8155	-7,9480576E+001	-3,2805424E-002
30/08/2025 16:31:49.2155	-7,9471664E+001	-5,1421363E-002
30/08/2025 16:32:00.6155	-7,9470398E+001	-6,0940064E-002
30/08/2025 16:32:12.0155	-7,9474213E+001	-6,7978688E-002
30/08/2025 16:32:23.4155	-7,9476120E+001	-7,3759712E-002
30/08/2025 16:32:34.8155	-7,9475487E+001	-7,8586005E-002
30/08/2025 16:32:46.2155	-7,9478668E+001	-8,2585357E-002
30/08/2025 16:32:57.6155	-7,9470398E+001	-8,6041927E-002
30/08/2025 16:33:09.0155	-7,9470398E+001	-8,9146867E-002
30/08/2025 16:33:20.4155	-7,9474846E+001	-9,2066012E-002
30/08/2025 16:33:31.8155	-7,9469749E+001	-9,4705760E-002
30/08/2025 16:33:43.1157	1,0601522E+002	1,7054349E-002
30/08/2025 16:33:54.5157	1,0601076E+002	4,1798241E-002
30/08/2025 16:34:05.9157	1,0600568E+002	5,7055175E-002
30/08/2025 16:34:17.3157	1,0601076E+002	6,8518467E-002
30/08/2025 16:34:28.7157	1,0601203E+002	7,7722102E-002
30/08/2025 16:34:40.1157	1,0600631E+002	8,5059717E-002
30/08/2025 16:34:51.5157	1,0601266E+002	9,1212764E-002
30/08/2025 16:35:02.9157	1,0600631E+002	9,6467540E-002
30/08/2025 16:35:14.3157	1,0601012E+002	1,0119554E-001
30/08/2025 16:35:25.7157	1,0600885E+002	1,0555665E-001
30/08/2025 16:35:37.0161	9,2503773E-003	6,5448098E-002
30/08/2025 16:35:48.4161	1,1795843E-002	3,7945427E-002
30/08/2025 16:35:59.8161	8,6140092E-003	2,8625671E-002
30/08/2025 16:36:11.2161	7,3412773E-003	2,2723597E-002
30/08/2025 16:36:22.6161	1,1159477E-002	1,8558079E-002
30/08/2025 16:36:34.0161	-2,2042233E-003	1,5403552E-002
30/08/2025 16:36:45.4161	9,2503773E-003	1,2921187E-002
30/08/2025 16:36:56.8161	2,8867100E-003	1,0975679E-002
30/08/2025 16:37:08.2161	4,1594426E-003	9,4003649E-003
30/08/2025 16:37:19.6161	1,1159477E-002	8,0923326E-003
30/08/2025 16:37:31.0161	1,1159477E-002	6,9673918E-003
30/08/2025 16:37:42.3163	-1,0597507E+002	-5,4741524E-002
30/08/2025 16:37:53.7163	-1,0596933E+002	-7,2030574E-002
30/08/2025 16:38:05.1163	-1,0597314E+002	-8,3387859E-002
30/08/2025 16:38:16.5163	-1,0598270E+002	-9,2397280E-002
30/08/2025 16:38:27.9163	-1,0597251E+002	-9,9805251E-002
30/08/2025 16:38:39.3163	-1,0597060E+002	-1,0600055E-001
30/08/2025 16:38:50.7163	-1,0597952E+002	-1,1145462E-001
30/08/2025 16:39:02.1163	-1,0598079E+002	-1,1627999E-001
30/08/2025 16:39:13.5163	-1,0597888E+002	-1,2094131E-001
30/08/2025 16:39:24.9163	-1,0597443E+002	-1,2509938E-001
30/08/2025 16:39:36.3163	-1,0597697E+002	-1,2890545E-001
30/08/2025 16:39:36.8165	-1,0598016E+002	-1,2891538E-001