File: data/phase_2a/Sergey/3/3.3/02 polarisation/SN50_C7D1_lr 0,1MFeCN6_in_1M_KCl_3306mL_symmetric_balanced_4_point_PEIS_10mV_03_CP_C16.txt
time/s	I/mA	<Ewe/V>
02/09/2025 18:42:21.3067	2,1341887E-001	-7,6437071E-002
02/09/2025 18:42:37.3067	1,3705294E-001	-3,8189478E-002
02/09/2025 18:42:53.3067	3,5231672E-002	-2,5161225E-002
02/09/2025 18:43:09.3067	1,1796144E-001	-1,7030051E-002
02/09/2025 18:43:25.3067	1,6887209E-001	-1,1583393E-002
02/09/2025 18:43:41.3067	1,8159975E-001	-7,9736803E-003
02/09/2025 18:43:57.3067	1,1159762E-001	-5,6550009E-003
02/09/2025 18:44:13.3067	1,1159762E-001	-4,2536850E-003
02/09/2025 18:44:29.3065	1,3267017E+002	6,9283940E-002
02/09/2025 18:44:45.3065	1,3263199E+002	9,4486728E-002
02/09/2025 18:45:01.3065	1,3257471E+002	1,0999876E-001
02/09/2025 18:45:17.3065	1,3253015E+002	1,2065604E-001
02/09/2025 18:45:33.3065	1,3265106E+002	1,2811294E-001
02/09/2025 18:45:49.3065	1,3261925E+002	1,3328725E-001
02/09/2025 18:46:05.3065	1,3260652E+002	1,3654785E-001
02/09/2025 18:46:21.3065	1,3258107E+002	1,3863355E-001
02/09/2025 18:46:37.2067	1,4978060E-001	4,3967705E-002
02/09/2025 18:46:53.2067	1,1796144E-001	2,7633388E-002
02/09/2025 18:47:09.2067	1,9432738E-001	1,7462885E-002
02/09/2025 18:47:25.2067	1,4978060E-001	1,0614875E-002
02/09/2025 18:47:41.2067	1,0523378E-001	6,0287407E-003
02/09/2025 18:47:57.2067	6,7050815E-002	3,0939006E-003
02/09/2025 18:48:13.2067	6,0686987E-002	1,3351511E-003
02/09/2025 18:48:29.1069	-1,3238968E+002	-7,1731284E-002
02/09/2025 18:48:45.1069	-1,3235785E+002	-9,7661003E-002
02/09/2025 18:49:01.1069	-1,3242149E+002	-1,1353498E-001
02/09/2025 18:49:17.1069	-1,3244060E+002	-1,2433031E-001
02/09/2025 18:49:33.1069	-1,3242787E+002	-1,3165635E-001
02/09/2025 18:49:49.1069	-1,3237061E+002	-1,3662717E-001
02/09/2025 18:50:05.1069	-1,3238968E+002	-1,4014591E-001
02/09/2025 18:50:21.1069	-1,3244696E+002	-1,4250563E-001
02/09/2025 18:50:37.0071	1,5906096E+002	5,6908023E-002
02/09/2025 18:50:53.0071	1,5906096E+002	9,4390430E-002
02/09/2025 18:51:09.0071	1,5906096E+002	1,2054041E-001
02/09/2025 18:51:25.0071	1,5914371E+002	1,3983341E-001
02/09/2025 18:51:41.0071	1,5906734E+002	1,5397820E-001
02/09/2025 18:51:57.0071	1,5905460E+002	1,6392374E-001
02/09/2025 18:52:13.0071	1,5914371E+002	1,7058855E-001
02/09/2025 18:52:28.9075	1,3705294E-001	7,1513504E-002
02/09/2025 18:52:44.9075	1,4978060E-001	4,3605879E-002
02/09/2025 18:53:00.9075	1,1159762E-001	2,8428819E-002
02/09/2025 18:53:16.9075	1,2432528E-001	1,8399730E-002
02/09/2025 18:53:32.9075	9,7763510E-003	1,1522689E-002
02/09/2025 18:53:48.9075	1,1796144E-001	6,9125658E-003
02/09/2025 18:54:04.9075	1,3705294E-001	3,9655403E-003
02/09/2025 18:54:20.9075	1,4978060E-001	2,1843675E-003
02/09/2025 18:54:36.8077	-1,5886957E+002	-1,0293798E-001
02/09/2025 18:54:52.8077	-1,5888866E+002	-1,2772782E-001
02/09/2025 18:55:08.8077	-1,5888231E+002	-1,4460006E-001
02/09/2025 18:55:24.8077	-1,5885048E+002	-1,5652935E-001
02/09/2025 18:55:40.8077	-1,5885684E+002	-1,6493759E-001
02/09/2025 18:55:56.8077	-1,5884413E+002	-1,7079359E-001
02/09/2025 18:56:12.8077	-1,5888866E+002	-1,7450739E-001
02/09/2025 18:56:28.7079	1,8566812E+002	3,1529445E-002
02/09/2025 18:56:44.7079	1,8563631E+002	8,9726634E-002
02/09/2025 18:57:00.7079	1,8562360E+002	1,2704496E-001
02/09/2025 18:57:16.7079	1,8557903E+002	1,5543704E-001
02/09/2025 18:57:32.7079	1,8564905E+002	1,7710643E-001
02/09/2025 18:57:48.7079	1,8564267E+002	1,9281034E-001
02/09/2025 18:58:04.7079	1,8563631E+002	2,0355494E-001
02/09/2025 18:58:20.7079	1,8571906E+002	2,1116225E-001
02/09/2025 18:58:36.6083	9,8869957E-002	6,5564938E-002
02/09/2025 18:58:52.6083	1,8159975E-001	4,2356331E-002
02/09/2025 18:59:08.6083	9,2506140E-002	2,7908346E-002
02/09/2025 18:59:24.6083	1,0523378E-001	1,8039051E-002
02/09/2025 18:59:40.6083	4,1595493E-002	1,1299412E-002
02/09/2025 18:59:56.6083	1,3705294E-001	6,8975529E-003
02/09/2025 19:00:12.6083	1,1796144E-001	4,1585243E-003
02/09/2025 19:00:28.5085	-1,8535582E+002	-9,6796587E-002
02/09/2025 19:00:44.5085	-1,8533037E+002	-1,3658690E-001
02/09/2025 19:01:00.5085	-1,8533037E+002	-1,6211171E-001
02/09/2025 19:01:16.5085	-1,8536855E+002	-1,7979328E-001
02/09/2025 19:01:32.5085	-1,8538129E+002	-1,9247262E-001
02/09/2025 19:01:48.5085	-1,8538129E+002	-2,0178142E-001
02/09/2025 19:02:04.5085	-1,8534309E+002	-2,0863469E-001
02/09/2025 19:02:20.5085	-1,8538129E+002	-2,1359508E-001
02/09/2025 19:02:36.4087	2,1219258E+002	7,3720098E-002
02/09/2025 19:02:52.4087	2,1209712E+002	1,2546526E-001
02/09/2025 19:03:08.4087	2,1207166E+002	1,6430625E-001
02/09/2025 19:03:24.4087	2,1209074E+002	1,9524175E-001
02/09/2025 19:03:40.4087	2,1221167E+002	2,1917112E-001
02/09/2025 19:03:56.4087	2,1212894E+002	2,3707581E-001
02/09/2025 19:04:12.4087	2,1212894E+002	2,5117114E-001
02/09/2025 19:04:28.3091	1,0523378E-001	1,0200376E-001
02/09/2025 19:04:44.3091	6,7050815E-002	6,1934140E-002
02/09/2025 19:05:00.3091	1,0523378E-001	4,0868875E-002
02/09/2025 19:05:16.3091	1,3068911E-001	2,6994346E-002
02/09/2025 19:05:32.3091	6,7050815E-002	1,7472206E-002
02/09/2025 19:05:48.3091	1,2432528E-001	1,1059824E-002
02/09/2025 19:06:04.3091	1,6250826E-001	6,9330786E-003
02/09/2025 19:06:20.3091	1,3705294E-001	4,4211089E-003
02/09/2025 19:06:36.2093	-2,1186754E+002	-1,3603072E-001
02/09/2025 19:06:52.2093	-2,1177846E+002	-1,7349882E-001
02/09/2025 19:07:08.2093	-2,1176572E+002	-1,9987471E-001
02/09/2025 19:07:24.2093	-2,1181027E+002	-2,1922013E-001
02/09/2025 19:07:40.2093	-2,1180389E+002	-2,3384091E-001
02/09/2025 19:07:56.2093	-2,1181664E+002	-2,4506971E-001
02/09/2025 19:08:12.2093	-2,1186754E+002	-2,5396556E-001
02/09/2025 19:08:28.1095	2,3858337E+002	3,6830176E-002
02/09/2025 19:08:44.1095	2,3857701E+002	1,1327258E-001
02/09/2025 19:09:00.1095	2,3862155E+002	1,6485745E-001
02/09/2025 19:09:16.1095	2,3853883E+002	2,0738924E-001
02/09/2025 19:09:32.1095	2,3858974E+002	2,4178916E-001
02/09/2025 19:09:48.1095	2,3861520E+002	2,6844266E-001
02/09/2025 19:10:04.1095	2,3858337E+002	2,9275686E-001
02/09/2025 19:10:20.1095	2,3857063E+002	3,2203466E-001
02/09/2025 19:10:36.0099	1,3068911E-001	9,2403777E-002
02/09/2025 19:10:52.0099	1,3068911E-001	5,9682079E-002
02/09/2025 19:11:08.0099	9,8869957E-002	3,9715931E-002
02/09/2025 19:11:24.0099	7,9778478E-002	2,6129467E-002
02/09/2025 19:11:40.0099	1,1796144E-001	1,6896689E-002
02/09/2025 19:11:56.0099	1,6250826E-001	1,0838838E-002
02/09/2025 19:12:12.0099	1,6887209E-001	7,0208237E-003
02/09/2025 19:12:27.9101	-2,3827744E+002	-1,2095205E-001
02/09/2025 19:12:43.9101	-2,3832198E+002	-1,7762078E-001
02/09/2025 19:12:59.9101	-2,3830289E+002	-2,1523659E-001
02/09/2025 19:13:15.9101	-2,3830289E+002	-2,4244601E-001
02/09/2025 19:13:31.9101	-2,3830289E+002	-2,6374599E-001
02/09/2025 19:13:47.9101	-2,3830289E+002	-2,8290564E-001
02/09/2025 19:14:03.9101	-2,3835381E+002	-3,0256706E-001
02/09/2025 19:14:19.9101	-2,3827106E+002	-3,2170069E-001
02/09/2025 19:14:35.8103	2,6512054E+002	8,8082328E-002
02/09/2025 19:14:51.8103	2,6514597E+002	1,5471938E-001
02/09/2025 19:15:07.8103	2,6512054E+002	2,0920464E-001
02/09/2025 19:15:23.8103	2,6507599E+002	2,5626287E-001
02/09/2025 19:15:39.8103	2,6511420E+002	2,9529577E-001
02/09/2025 19:15:55.8103	2,6512054E+002	3,3630198E-001
02/09/2025 19:16:11.8103	2,6510147E+002	4,0303728E-001
02/09/2025 19:16:27.7107	1,0523378E-001	1,4774339E-001
02/09/2025 19:16:43.7107	1,1159762E-001	8,7345108E-002
02/09/2025 19:16:59.7107	1,4978060E-001	5,7875581E-002
02/09/2025 19:17:15.7107	1,4341676E-001	3,8722586E-002
02/09/2025 19:17:31.7107	1,4341676E-001	2,5589246E-002
02/09/2025 19:17:47.7107	1,2432528E-001	1,6656568E-002
02/09/2025 19:18:03.7107	1,1796144E-001	1,0849574E-002
02/09/2025 19:18:19.7107	4,7959324E-002	7,2900928E-003
02/09/2025 19:18:35.6109	-2,6478278E+002	-1,6914502E-001
02/09/2025 19:18:51.6109	-2,6477005E+002	-2,2265905E-001
02/09/2025 19:19:07.6109	-2,6473825E+002	-2,6171955E-001
02/09/2025 19:19:23.6109	-2,6473825E+002	-2,9211617E-001
02/09/2025 19:19:39.6109	-2,6478915E+002	-3,2232437E-001
02/09/2025 19:19:55.6109	-2,6482095E+002	-3,6225516E-001
02/09/2025 19:20:11.6109	-2,6482095E+002	-4,0316457E-001
02/09/2025 19:20:27.5111	2,9163861E+002	3,7484922E-002
02/09/2025 19:20:43.5111	2,9161951E+002	1,3289054E-001
02/09/2025 19:20:59.5111	2,9155588E+002	1,9979702E-001
02/09/2025 19:21:15.5111	2,9161316E+002	2,6018417E-001
02/09/2025 19:21:31.5111	2,9163861E+002	3,1242719E-001
02/09/2025 19:21:47.5111	2,9164499E+002	3,6683151E-001
02/09/2025 19:22:03.5111	2,9160678E+002	4,9159732E-001
02/09/2025 19:22:19.5111	2,9153043E+002	6,6361505E-001
02/09/2025 19:22:35.4115	9,2506140E-002	1,3205715E-001
02/09/2025 19:22:51.4115	9,2506140E-002	8,4536716E-002
02/09/2025 19:23:07.4115	1,1796144E-001	5,6722142E-002
02/09/2025 19:23:23.4115	1,0523378E-001	3,8045883E-002
02/09/2025 19:23:39.4115	1,0523378E-001	2,5226390E-002
02/09/2025 19:23:55.4115	1,3068911E-001	1,6600605E-002
02/09/2025 19:24:11.4115	9,8869957E-002	1,1091988E-002
02/09/2025 19:24:27.3117	-2,9130722E+002	-1,4312336E-001
02/09/2025 19:24:43.3117	-2,9137723E+002	-2,1979690E-001
02/09/2025 19:24:59.3117	-2,9137723E+002	-2,7314973E-001
02/09/2025 19:25:15.3117	-2,9127539E+002	-3,1383595E-001
02/09/2025 19:25:31.3117	-2,9138995E+002	-3,5697970E-001
02/09/2025 19:25:47.3117	-2,9136447E+002	-4,3377393E-001
02/09/2025 19:26:03.3117	-2,9128177E+002	-5,2686310E-001
02/09/2025 19:26:19.3117	-2,9137723E+002	-6,5425181E-001
02/09/2025 19:26:35.2119	3,1818851E+002	9,8206758E-002
02/09/2025 19:26:51.2119	3,1817581E+002	1,7879459E-001
02/09/2025 19:27:07.2119	3,1815671E+002	2,5001323E-001
02/09/2025 19:27:23.2119	3,1814395E+002	3,1682047E-001
02/09/2025 19:27:39.2119	3,1815033E+002	3,8104326E-001
02/09/2025 19:27:55.2119	3,1815671E+002	5,7107514E-001
02/09/2025 19:28:11.0187	-3,1783163E+002	-1,1028315E-002
02/09/2025 19:28:27.0187	-3,1779984E+002	-1,2764141E-001
02/09/2025 19:28:43.0187	-3,1786984E+002	-1,9981742E-001
02/09/2025 19:28:59.0187	-3,1785074E+002	-2,6572090E-001
02/09/2025 19:29:15.0187	-3,1790161E+002	-3,2597864E-001
02/09/2025 19:29:31.0187	-3,1779346E+002	-3,8563895E-001
02/09/2025 19:29:47.0187	-3,1788254E+002	-5,4535979E-001
02/09/2025 19:30:03.0187	-3,1785074E+002	-7,9258901E-001
02/09/2025 19:30:03.0423	1,6140183E-002	-6,6618997E-001