File: data/phase_2a/Sergey/3/3.3/02 polarisation/SN50_C7D1_lr 0,1MFeCN6_in_1M_KCl_3306mL_symmetric_balanced_4_point_PEIS_10mV_02_CP_C16.txt
time/s	I/mA	<Ewe/V>
02/09/2025 18:08:21.2490	4,1594426E-003	-3,5613319E-003
02/09/2025 18:08:32.6490	4,7958097E-003	-3,5555104E-003
02/09/2025 18:08:44.0490	5,4321769E-003	-3,5662826E-003
02/09/2025 18:08:55.4490	1,3704944E-002	-3,5686509E-003
02/09/2025 18:09:06.8490	6,0685435E-003	-3,5682307E-003
02/09/2025 18:09:18.2490	4,7958097E-003	-3,5602469E-003
02/09/2025 18:09:29.6490	3,5230771E-003	-3,5655950E-003
02/09/2025 18:09:41.0490	1,4341311E-002	-3,5702554E-003
02/09/2025 18:09:52.4490	1,4341311E-002	-3,5656332E-003
02/09/2025 18:10:03.8490	4,7958097E-003	-3,5741900E-003
02/09/2025 18:10:15.2490	8,6140092E-003	-3,5758705E-003
02/09/2025 18:10:26.6490	1,0523110E-002	-3,5699878E-003
02/09/2025 18:10:38.0490	8,6140092E-003	-3,5687273E-003
02/09/2025 18:10:49.4490	1,0523110E-002	-3,5670465E-003
02/09/2025 18:11:00.8490	7,9776440E-003	-3,5727764E-003
02/09/2025 18:11:12.2490	7,9776440E-003	-3,5696058E-003
02/09/2025 18:11:23.6490	6,7049102E-003	-3,5763672E-003
02/09/2025 18:11:35.0490	1,1159477E-002	-3,5807984E-003
02/09/2025 18:11:46.4490	6,7049102E-003	-3,5690330E-003
02/09/2025 18:11:57.8490	3,5230771E-003	-3,5736552E-003
02/09/2025 18:12:09.2490	1,1159477E-002	-3,5644872E-003
02/09/2025 18:12:20.6490	2,2503431E-003	-3,5712868E-003
02/09/2025 18:12:32.0490	6,7049102E-003	-3,5717450E-003
02/09/2025 18:12:43.4490	9,8867435E-003	-3,5718596E-003
02/09/2025 18:12:54.8490	1,2432210E-002	-3,5718596E-003
02/09/2025 18:13:06.2490	4,1594426E-003	-3,5720507E-003
02/09/2025 18:13:17.6490	7,3412773E-003	-3,5659387E-003
02/09/2025 18:13:29.0490	9,2503773E-003	-3,5689182E-003
02/09/2025 18:13:40.4490	1,1795843E-002	-3,5688037E-003
02/09/2025 18:13:51.8490	9,2503773E-003	-3,5746482E-003
02/09/2025 18:14:03.2490	9,8867435E-003	-3,5805309E-003
02/09/2025 18:14:14.6490	2,8867100E-003	-3,5679634E-003
02/09/2025 18:14:26.0490	6,0685435E-003	-3,5784682E-003
02/09/2025 18:14:37.4490	1,3704944E-002	-3,5707902E-003
02/09/2025 18:14:48.8490	4,7958097E-003	-3,5741134E-003
02/09/2025 18:15:00.2490	7,3412773E-003	-3,5741515E-003
02/09/2025 18:15:11.6490	1,3704944E-002	-3,5756032E-003
02/09/2025 18:15:23.0490	9,8867435E-003	-3,5730819E-003
02/09/2025 18:15:34.4490	2,2503431E-003	-3,5717834E-003
02/09/2025 18:15:45.8490	4,1594426E-003	-3,5752596E-003
02/09/2025 18:15:57.2490	5,4321769E-003	-3,5705990E-003
02/09/2025 18:16:08.6490	1,6250411E-002	-3,5710577E-003
02/09/2025 18:16:20.0490	5,4321769E-003	-3,5761762E-003
02/09/2025 18:16:31.4490	6,7049102E-003	-3,5744191E-003
02/09/2025 18:16:42.8490	2,8867100E-003	-3,5731201E-003
02/09/2025 18:16:54.2490	1,0523110E-002	-3,5759090E-003
02/09/2025 18:17:05.6490	6,0685435E-003	-3,5701024E-003
02/09/2025 18:17:17.0490	4,7958097E-003	-3,5762144E-003
02/09/2025 18:17:28.4490	3,4124311E-004	-3,5799961E-003
02/09/2025 18:17:39.8490	1,2432210E-002	-3,5848476E-003
02/09/2025 18:17:51.2490	9,8867435E-003	-3,5820208E-003
02/09/2025 18:18:02.6490	1,1795843E-002	-3,5744573E-003
02/09/2025 18:18:14.0490	1,0523110E-002	-3,5715159E-003
02/09/2025 18:18:25.4016	2,6505650E+001	9,0342499E-003
02/09/2025 18:18:36.8016	2,6509470E+001	1,3540088E-002
02/09/2025 18:18:48.2016	2,6507559E+001	1,6215743E-002
02/09/2025 18:18:59.6016	2,6511377E+001	1,8066516E-002
02/09/2025 18:19:11.0016	2,6503107E+001	1,9507673E-002
02/09/2025 18:19:22.4016	2,6507559E+001	2,0530965E-002
02/09/2025 18:19:33.8016	2,6510105E+001	2,1382781E-002
02/09/2025 18:19:45.2016	2,6502468E+001	2,1979688E-002
02/09/2025 18:19:56.6016	2,6512012E+001	2,2437396E-002
02/09/2025 18:20:08.0016	2,6508831E+001	2,2808962E-002
02/09/2025 18:20:19.4016	2,6510105E+001	2,3017228E-002
02/09/2025 18:20:30.7018	7,9776440E-003	8,0810925E-003
02/09/2025 18:20:42.1018	5,4321769E-003	4,8369123E-003
02/09/2025 18:20:53.5018	6,0685435E-003	2,7476591E-003
02/09/2025 18:21:04.9018	4,7958097E-003	1,2064948E-003
02/09/2025 18:21:16.3018	7,9776440E-003	5,7984485E-005
02/09/2025 18:21:27.7018	9,7761012E-004	-8,0666429E-004
02/09/2025 18:21:39.1018	1,5614044E-002	-1,4455533E-003
02/09/2025 18:21:50.5018	6,0685435E-003	-1,9200691E-003
02/09/2025 18:22:01.9018	9,8867435E-003	-2,2553855E-003
02/09/2025 18:22:13.3018	1,6250411E-002	-2,4912301E-003
02/09/2025 18:22:24.6020	-2,6488420E+001	-1,4698077E-002
02/09/2025 18:22:36.0020	-2,6485874E+001	-1,9646190E-002
02/09/2025 18:22:47.4020	-2,6480783E+001	-2,2410812E-002
02/09/2025 18:22:58.8020	-2,6488420E+001	-2,4349751E-002
02/09/2025 18:23:10.2020	-2,6479511E+001	-2,5792856E-002
02/09/2025 18:23:21.6020	-2,6485235E+001	-2,6842736E-002
02/09/2025 18:23:33.0020	-2,6485235E+001	-2,7705474E-002
02/09/2025 18:23:44.4020	-2,6483328E+001	-2,8267620E-002
02/09/2025 18:23:55.8020	-2,6482693E+001	-2,8780373E-002
02/09/2025 18:24:07.2020	-2,6489691E+001	-2,9064389E-002
02/09/2025 18:24:18.6020	-2,6487148E+001	-2,9337324E-002
02/09/2025 18:24:29.9022	5,3013508E+001	1,5050426E-002
02/09/2025 18:24:41.3022	5,3010960E+001	2,5387248E-002
02/09/2025 18:24:52.7022	5,3008415E+001	3,2179561E-002
02/09/2025 18:25:04.1022	5,3012230E+001	3,7076030E-002
02/09/2025 18:25:15.5022	5,3016052E+001	4,0921170E-002
02/09/2025 18:25:26.9022	5,3016052E+001	4,3711841E-002
02/09/2025 18:25:38.3022	5,3012867E+001	4,5957103E-002
02/09/2025 18:25:49.7022	5,3008415E+001	4,7532227E-002
02/09/2025 18:26:01.1022	5,3008415E+001	4,8757941E-002
02/09/2025 18:26:12.5022	5,3017323E+001	4,9647454E-002
02/09/2025 18:26:23.8026	9,7761012E-004	2,6829321E-002
02/09/2025 18:26:35.2026	9,8867435E-003	1,6896080E-002
02/09/2025 18:26:46.6026	9,7761012E-004	1,1577009E-002
02/09/2025 18:26:58.0026	6,0685435E-003	7,9345591E-003
02/09/2025 18:27:09.4026	7,3412773E-003	5,2122618E-003
02/09/2025 18:27:20.8026	1,0523110E-002	3,1512000E-003
02/09/2025 18:27:32.2026	3,4124311E-004	1,5966278E-003
02/09/2025 18:27:43.6026	4,7958097E-003	4,0789315E-004
02/09/2025 18:27:55.0026	4,1594426E-003	-4,3070345E-004
02/09/2025 18:28:06.4026	1,2432210E-002	-1,0460997E-003
02/09/2025 18:28:17.8026	1,3704944E-002	-1,4655318E-003
02/09/2025 18:28:29.1028	-5,2977814E+001	-3,0667206E-002
02/09/2025 18:28:40.5028	-5,2977180E+001	-3,8238414E-002
02/09/2025 18:28:51.9028	-5,2985451E+001	-4,3087397E-002
02/09/2025 18:29:03.3028	-5,2978451E+001	-4,6608143E-002
02/09/2025 18:29:14.7028	-5,2976543E+001	-4,9251866E-002
02/09/2025 18:29:26.1028	-5,2977814E+001	-5,1180258E-002
02/09/2025 18:29:37.5028	-5,2976543E+001	-5,2771542E-002
02/09/2025 18:29:48.9028	-5,2980358E+001	-5,3798310E-002
02/09/2025 18:30:00.3028	-5,2972725E+001	-5,4737717E-002
02/09/2025 18:30:11.7028	-5,2972725E+001	-5,5238016E-002
02/09/2025 18:30:23.0030	7,9508629E+001	-6,4378104E-004
02/09/2025 18:30:34.4030	7,9509903E+001	2,6864389E-002
02/09/2025 18:30:45.8030	7,9508629E+001	4,1016132E-002
02/09/2025 18:30:57.2030	7,9509903E+001	5,0981846E-002
02/09/2025 18:31:08.6030	7,9513718E+001	5,8407243E-002
02/09/2025 18:31:20.0029	7,9506721E+001	6,4284600E-002
02/09/2025 18:31:31.4029	7,9511177E+001	6,8584777E-002
02/09/2025 18:31:42.8029	7,9508629E+001	7,2084241E-002
02/09/2025 18:31:54.2029	7,9506088E+001	7,4485891E-002
02/09/2025 18:32:05.6029	7,9507347E+001	7,6357447E-002
02/09/2025 18:32:17.0029	7,9507996E+001	7,7743061E-002
02/09/2025 18:32:28.3033	7,9776440E-003	3,4428261E-002
02/09/2025 18:32:39.7033	7,9776440E-003	2,3632126E-002
02/09/2025 18:32:51.1033	6,7049102E-003	1,6831217E-002
02/09/2025 18:33:02.5033	9,2503773E-003	1,2046864E-002
02/09/2025 18:33:13.9033	6,7049102E-003	8,3816471E-003
02/09/2025 18:33:25.3033	1,0523110E-002	5,5965502E-003
02/09/2025 18:33:36.7033	1,3704944E-002	3,4937363E-003
02/09/2025 18:33:48.1033	7,3412773E-003	1,9198349E-003
02/09/2025 18:33:59.5033	8,6140092E-003	7,9118833E-004
02/09/2025 18:34:10.9033	9,2503773E-003	-1,0813059E-005
02/09/2025 18:34:22.2035	-7,9479942E+001	-3,0412452E-002
02/09/2025 18:34:33.6035	-7,9474213E+001	-4,9469490E-002
02/09/2025 18:34:45.0035	-7,9473579E+001	-5,9017908E-002
02/09/2025 18:34:56.4035	-7,9471664E+001	-6,5509319E-002
02/09/2025 18:35:07.8035	-7,9477394E+001	-7,0391968E-002
02/09/2025 18:35:19.2035	-7,9469749E+001	-7,4110702E-002
02/09/2025 18:35:30.6035	-7,9472305E+001	-7,6819666E-002
02/09/2025 18:35:42.0035	-7,9479301E+001	-7,9089947E-002
02/09/2025 18:35:53.4035	-7,9476120E+001	-8,0541916E-002
02/09/2025 18:36:04.8035	-7,9472939E+001	-8,1867665E-002
02/09/2025 18:36:16.2035	-7,9474213E+001	-8,2565114E-002
02/09/2025 18:36:27.5037	1,0600758E+002	1,6115852E-002
02/09/2025 18:36:38.9037	1,0601076E+002	4,2857967E-002
02/09/2025 18:36:50.3037	1,0601522E+002	5,9857529E-002
02/09/2025 18:37:01.7037	1,0601203E+002	7,2405651E-002
02/09/2025 18:37:13.1037	1,0600885E+002	8,2017370E-002
02/09/2025 18:37:24.5037	1,0601076E+002	8,9771248E-002
02/09/2025 18:37:35.9037	1,0601648E+002	9,5496990E-002
02/09/2025 18:37:47.3037	1,0601012E+002	1,0017408E-001
02/09/2025 18:37:58.7037	1,0600949E+002	1,0334446E-001
02/09/2025 18:38:10.1037	1,0600440E+002	1,0586124E-001
02/09/2025 18:38:21.4041	6,0685435E-003	7,1645133E-002
02/09/2025 18:38:32.8041	5,4321769E-003	4,0276434E-002
02/09/2025 18:38:44.2041	6,7049102E-003	2,8711533E-002
02/09/2025 18:38:55.6041	1,1159477E-002	2,0852644E-002
02/09/2025 18:39:07.0041	1,4977678E-002	1,5165406E-002
02/09/2025 18:39:18.4041	1,4977678E-002	1,0803542E-002
02/09/2025 18:39:29.8041	5,4321769E-003	7,4950340E-003
02/09/2025 18:39:41.2041	1,6250411E-002	4,9874950E-003
02/09/2025 18:39:52.6041	8,6140092E-003	3,1388234E-003
02/09/2025 18:40:04.0041	4,1594426E-003	1,8087120E-003
02/09/2025 18:40:15.4041	9,2503773E-003	8,6831336E-004
02/09/2025 18:40:26.7043	-1,0597761E+002	-5,3139139E-002
02/09/2025 18:40:38.1043	-1,0597507E+002	-7,0625477E-002
02/09/2025 18:40:49.5043	-1,0597379E+002	-8,1885517E-002
02/09/2025 18:41:00.9043	-1,0597697E+002	-8,9861363E-002
02/09/2025 18:41:12.3043	-1,0597888E+002	-9,6007034E-002
02/09/2025 18:41:23.7043	-1,0597570E+002	-1,0069769E-001
02/09/2025 18:41:35.1043	-1,0597507E+002	-1,0415777E-001
02/09/2025 18:41:46.5043	-1,0597825E+002	-1,0703363E-001
02/09/2025 18:41:57.9043	-1,0597570E+002	-1,0885197E-001
02/09/2025 18:42:09.3043	-1,0597697E+002	-1,1060160E-001
02/09/2025 18:42:20.7043	-1,0597379E+002	-1,1149118E-001
02/09/2025 18:42:21.2045	-1,0597888E+002	-1,1168664E-001