File: data/phase_2a/Sergey/2/8.3/01 eis/SN50_C6aD1E1_mr 0,1MFeCN6_in_1M_KCl_3306mL_symmetric_balanced_4_point_PEIS_10mHz_200kHz_10mV_C16.txt
time/s	freq/Hz	Re(Z)/Ohm	-Im(Z)/Ohm
30/08/2025 19:53:28.9325	1,9999814E+005	2,9203176E-001	-3,5698049E-002
30/08/2025 19:53:31.7885	7,9609563E+004	3,1721997E-001	-9,9679604E-003
30/08/2025 19:53:35.9045	3,1686090E+004	3,1936339E-001	-3,1726628E-003
30/08/2025 19:53:37.6415	1,2618766E+004	3,2019338E-001	2,6694214E-004
30/08/2025 19:53:39.6197	5,0216069E+003	3,2157585E-001	2,0832394E-003
30/08/2025 19:53:41.7129	1,9980818E+003	3,2298142E-001	2,8432629E-003
30/08/2025 19:53:43.5797	7,9525409E+002	3,2475930E-001	3,4942382E-003
30/08/2025 19:53:45.4457	3,1672299E+002	3,2733446E-001	4,5837387E-003
30/08/2025 19:53:47.3132	1,2600809E+002	3,3006504E-001	5,5592675E-003
30/08/2025 19:53:49.1969	5,0208866E+001	3,3369806E-001	6,8031675E-003
30/08/2025 19:53:51.0440	1,9980818E+001	3,3790404E-001	8,3122971E-003
30/08/2025 19:53:53.0752	7,9557004E+000	3,4304968E-001	1,0323093E-002
30/08/2025 19:53:55.2047	3,1655185E+000	3,4895059E-001	1,2590135E-002
30/08/2025 19:54:01.0939	1,2596742E+000	3,5582516E-001	1,5951168E-002
30/08/2025 19:54:13.5090	5,0118679E-001	3,6364672E-001	2,7083008E-002
30/08/2025 19:54:44.4498	1,9980818E-001	3,7927315E-001	4,6886243E-002
30/08/2025 19:56:01.9826	7,9421178E-002	4,0956160E-001	7,7690229E-002
30/08/2025 19:59:16.6584	3,1592205E-002	4,6596950E-001	1,1923687E-001
30/08/2025 20:07:25.3660	1,2576789E-002	5,6237322E-001	1,4892678E-001
30/08/2025 20:10:57.0895	1,2618765E+005	3,1165633E-001	-2,0043656E-002
30/08/2025 20:11:00.2265	5,0224539E+004	3,1700650E-001	-6,1430293E-003
30/08/2025 20:11:02.2425	1,9995176E+004	3,1817967E-001	-1,2513353E-003
30/08/2025 20:11:04.0378	7,9597607E+003	3,1923300E-001	1,2168508E-003
30/08/2025 20:11:06.2470	3,1669595E+003	3,2052207E-001	2,2786350E-003
30/08/2025 20:11:08.1127	1,2604036E+003	3,2221609E-001	3,1915188E-003
30/08/2025 20:11:09.9810	5,0208865E+002	3,2438278E-001	3,9653718E-003
30/08/2025 20:11:11.8470	1,9980818E+002	3,2698455E-001	4,9866955E-003
30/08/2025 20:11:13.7190	7,9516548E+001	3,3020386E-001	6,0284608E-003
30/08/2025 20:11:15.5793	3,1672298E+001	3,3372599E-001	7,4815014E-003
30/08/2025 20:11:17.5029	1,2600809E+001	3,3855435E-001	9,2035132E-003
30/08/2025 20:11:19.3923	5,0144420E+000	3,4414315E-001	1,1243223E-002
30/08/2025 20:11:22.6437	1,9970603E+000	3,5028955E-001	1,3896021E-002
30/08/2025 20:11:31.3802	7,9443753E-001	3,5692066E-001	2,1031812E-002
30/08/2025 20:11:50.9618	3,1619310E-001	3,6780658E-001	3,5644431E-002
30/08/2025 20:12:39.9344	1,2590654E-001	3,8942793E-001	6,1148345E-002
30/08/2025 20:14:42.7281	5,0154075E-002	4,3121433E-001	9,7816870E-002
30/08/2025 20:19:51.1326	1,9949391E-002	5,0995409E-001	1,3847023E-001
30/08/2025 20:28:21.6886	1,9999814E+005	2,9772162E-001	-3,9115354E-002
30/08/2025 20:28:23.7056	7,9609563E+004	3,1453869E-001	-1,1156270E-002
30/08/2025 20:28:26.5636	3,1686090E+004	3,1668487E-001	-3,3289988E-003
30/08/2025 20:28:28.3006	1,2618766E+004	3,1742039E-001	2,1434165E-004
30/08/2025 20:28:30.2768	5,0216069E+003	3,1874150E-001	1,8376668E-003
30/08/2025 20:28:32.3670	1,9980818E+003	3,2034159E-001	2,5459290E-003
30/08/2025 20:28:34.2328	7,9525409E+002	3,2233626E-001	3,7785165E-003
30/08/2025 20:28:36.0988	3,1672299E+002	3,2456321E-001	4,4932254E-003
30/08/2025 20:28:37.9663	1,2600809E+002	3,2743436E-001	5,4508676E-003
30/08/2025 20:28:39.8480	5,0208866E+001	3,3063045E-001	6,8555172E-003
30/08/2025 20:28:41.6940	1,9980818E+001	3,3497065E-001	8,3514303E-003
30/08/2025 20:28:43.7243	7,9557004E+000	3,4008363E-001	1,0250488E-002
30/08/2025 20:28:45.8548	3,1655185E+000	3,4599039E-001	1,2644093E-002
30/08/2025 20:28:51.7442	1,2596742E+000	3,5261241E-001	1,7706994E-002
30/08/2025 20:29:04.1602	5,0118679E-001	3,6051625E-001	2,7298892E-002
30/08/2025 20:29:35.1027	1,9980818E-001	3,7578383E-001	4,6930213E-002
30/08/2025 20:30:52.6385	7,9421178E-002	4,0640864E-001	7,8230582E-002
30/08/2025 20:34:07.3111	3,1592205E-002	4,6305069E-001	1,1989632E-001
30/08/2025 20:42:16.0178	1,2576789E-002	5,6155169E-001	1,4847893E-001
30/08/2025 20:45:47.7426	1,2618765E+005	3,0842167E-001	-1,5427446E-002
30/08/2025 20:45:53.1196	5,0224539E+004	3,1546617E-001	-5,2910815E-003
30/08/2025 20:45:55.1356	1,9995176E+004	3,1654948E-001	-1,0815831E-003
30/08/2025 20:45:56.9309	7,9597607E+003	3,1780341E-001	1,1185580E-003
30/08/2025 20:45:59.1391	3,1669595E+003	3,1920907E-001	2,3239187E-003
30/08/2025 20:46:01.0048	1,2604036E+003	3,2068074E-001	3,2595089E-003
30/08/2025 20:46:02.8721	5,0208865E+002	3,2298216E-001	3,9371112E-003
30/08/2025 20:46:04.7381	1,9980818E+002	3,2534939E-001	4,7958586E-003
30/08/2025 20:46:06.6101	7,9516548E+001	3,2848662E-001	6,1361268E-003
30/08/2025 20:46:08.4684	3,1672298E+001	3,3237132E-001	7,2903526E-003
30/08/2025 20:46:10.3930	1,2600809E+001	3,3688593E-001	9,0948194E-003
30/08/2025 20:46:12.2823	5,0144420E+000	3,4252667E-001	1,1215186E-002
30/08/2025 20:46:15.5338	1,9970603E+000	3,4862432E-001	1,3864572E-002
30/08/2025 20:46:24.2733	7,9443753E-001	3,5554007E-001	2,0740472E-002
30/08/2025 20:46:43.8558	3,1619310E-001	3,6659762E-001	3,5430998E-002
30/08/2025 20:47:32.8299	1,2590654E-001	3,8840410E-001	6,0293600E-002
30/08/2025 20:49:35.6234	5,0154075E-002	4,2961082E-001	9,6211649E-002
30/08/2025 20:54:44.0279	1,9949391E-002	5,0718069E-001	1,3715985E-001
30/08/2025 21:03:14.5827	1,9999814E+005	2,8768072E-001	-3,0490501E-002
30/08/2025 21:03:17.4397	7,9609563E+004	3,1427518E-001	-9,4069829E-003
30/08/2025 21:03:21.9767	3,1686090E+004	3,1614259E-001	-2,8703357E-003
30/08/2025 21:03:23.7137	1,2618766E+004	3,1699899E-001	4,0407272E-004
30/08/2025 21:03:25.6919	5,0216069E+003	3,1817311E-001	2,0565493E-003
30/08/2025 21:03:27.7832	1,9980818E+003	3,1973982E-001	2,7786088E-003
30/08/2025 21:03:29.6499	7,9525409E+002	3,2163161E-001	3,6416277E-003
30/08/2025 21:03:31.5159	3,1672299E+002	3,2384732E-001	4,4223820E-003
30/08/2025 21:03:33.3833	1,2600809E+002	3,2674959E-001	5,5540767E-003
30/08/2025 21:03:35.2661	5,0208866E+001	3,3003163E-001	6,7225350E-003
30/08/2025 21:03:37.1122	1,9980818E+001	3,3424708E-001	8,2371309E-003
30/08/2025 21:03:39.1434	7,9557004E+000	3,3939824E-001	1,0117517E-002
30/08/2025 21:03:41.2740	3,1655185E+000	3,4528244E-001	1,2756059E-002
30/08/2025 21:03:47.1632	1,2596742E+000	3,5255298E-001	1,6784530E-002
30/08/2025 21:03:59.5785	5,0118679E-001	3,5998371E-001	2,6949003E-002
30/08/2025 21:04:30.5205	1,9980818E-001	3,7553272E-001	4,6604592E-002
30/08/2025 21:05:48.0566	7,9421178E-002	4,0591341E-001	7,7281341E-002
30/08/2025 21:09:02.7292	3,1592205E-002	4,6204969E-001	1,1868681E-001
30/08/2025 21:17:11.4360	1,2576789E-002	5,5992103E-001	1,4799719E-001
30/08/2025 21:20:43.1607	1,2618765E+005	3,0972400E-001	-1,9730119E-002
30/08/2025 21:20:47.9777	5,0224539E+004	3,1527364E-001	-5,9392694E-003
30/08/2025 21:20:49.9947	1,9995176E+004	3,1684789E-001	-1,2738410E-003
30/08/2025 21:20:51.7900	7,9597607E+003	3,1754157E-001	1,1208209E-003
30/08/2025 21:20:54.0002	3,1669595E+003	3,1904361E-001	2,3351896E-003
30/08/2025 21:20:55.8669	1,2604036E+003	3,2060942E-001	3,1136305E-003
30/08/2025 21:20:57.7332	5,0208865E+002	3,2258770E-001	4,0530907E-003
30/08/2025 21:20:59.5992	1,9980818E+002	3,2520378E-001	4,9038553E-003
30/08/2025 21:21:01.4732	7,9516548E+001	3,2832503E-001	6,0306489E-003
30/08/2025 21:21:03.3314	3,1672298E+001	3,3211824E-001	7,5448989E-003
30/08/2025 21:21:05.2561	1,2600809E+001	3,3668944E-001	9,0563623E-003
30/08/2025 21:21:07.1454	5,0144420E+000	3,4241191E-001	1,1123583E-002
30/08/2025 21:21:10.3980	1,9970603E+000	3,4836248E-001	1,3893590E-002
30/08/2025 21:21:19.1364	7,9443753E-001	3,5539511E-001	2,0835148E-002
30/08/2025 21:21:38.7199	3,1619310E-001	3,6637554E-001	3,5557218E-002
30/08/2025 21:22:27.6938	1,2590654E-001	3,8834414E-001	6,0470100E-002
30/08/2025 21:24:30.4884	5,0154075E-002	4,2976728E-001	9,6368752E-002
30/08/2025 21:29:38.8927	1,9949391E-002	5,0746936E-001	1,3707623E-001