File: data/phase_2a/Sergey/3/20.7/02 polarisation/C7D1_hr 0,1MFeCN6_in_1M_KCl_3306mL_symmetric_balanced_4_point_PEIS_02_CP_C16.txt
time/s	I/mA	<Ewe/V>
03/09/2025 13:40:00.7890	6,0685435E-003	-4,6891300E-003
03/09/2025 13:40:12.2890	6,7049102E-003	-4,6881293E-003
03/09/2025 13:40:23.7890	5,4321769E-003	-4,6903454E-003
03/09/2025 13:40:35.2890	9,2503773E-003	-4,6841949E-003
03/09/2025 13:40:46.7890	1,6886778E-002	-4,6859523E-003
03/09/2025 13:40:58.2890	2,8867100E-003	-4,6813684E-003
03/09/2025 13:41:09.7890	4,7958097E-003	-4,6867924E-003
03/09/2025 13:41:21.2890	8,6140092E-003	-4,6815593E-003
03/09/2025 13:41:32.7890	7,9776440E-003	-4,6929424E-003
03/09/2025 13:41:44.2890	6,0685435E-003	-4,6877475E-003
03/09/2025 13:41:55.7890	6,0685435E-003	-4,6928665E-003
03/09/2025 13:42:07.2890	1,1159477E-002	-4,6842331E-003
03/09/2025 13:42:18.7890	2,8867100E-003	-4,6875947E-003
03/09/2025 13:42:30.2890	6,7049102E-003	-4,6838513E-003
03/09/2025 13:42:41.7890	1,1795843E-002	-4,6825525E-003
03/09/2025 13:42:53.2890	8,6140092E-003	-4,6840422E-003
03/09/2025 13:43:04.7890	7,3412773E-003	-4,6867160E-003
03/09/2025 13:43:16.2890	1,6139771E-003	-4,6790000E-003
03/09/2025 13:43:27.7890	1,2432210E-002	-4,6854173E-003
03/09/2025 13:43:39.2890	1,5614044E-002	-4,6787704E-003
03/09/2025 13:43:50.7890	4,7958097E-003	-4,6869838E-003
03/09/2025 13:44:02.2890	6,7049102E-003	-4,6901540E-003
03/09/2025 13:44:13.7890	2,2503431E-003	-4,6919114E-003
03/09/2025 13:44:25.2890	6,0685435E-003	-4,6836217E-003
03/09/2025 13:44:36.7890	6,7049102E-003	-4,6889703E-003
03/09/2025 13:44:48.2890	8,6140092E-003	-4,6883970E-003
03/09/2025 13:44:59.7890	9,2503773E-003	-4,6801455E-003
03/09/2025 13:45:11.2890	1,0523110E-002	-4,6919873E-003
03/09/2025 13:45:22.7890	4,7958097E-003	-4,6856082E-003
03/09/2025 13:45:34.2890	5,4321769E-003	-4,6900776E-003
03/09/2025 13:45:45.7890	9,7761012E-004	-4,6905358E-003
03/09/2025 13:45:57.2890	7,3412773E-003	-4,6941652E-003
03/09/2025 13:46:08.7890	7,9776440E-003	-4,6905740E-003
03/09/2025 13:46:20.2890	4,7958097E-003	-4,6919873E-003
03/09/2025 13:46:31.7890	8,6140092E-003	-4,6831635E-003
03/09/2025 13:46:43.2890	8,6140092E-003	-4,6895808E-003
03/09/2025 13:46:54.7890	4,1594426E-003	-4,6945089E-003
03/09/2025 13:47:06.2890	2,2503431E-003	-4,6850350E-003
03/09/2025 13:47:17.7890	7,3412773E-003	-4,6884734E-003
03/09/2025 13:47:29.2890	6,7049102E-003	-4,6926369E-003
03/09/2025 13:47:40.7890	8,6140092E-003	-4,6965717E-003
03/09/2025 13:47:52.2890	6,0685435E-003	-4,6947380E-003
03/09/2025 13:48:03.7890	1,1159477E-002	-4,6915291E-003
03/09/2025 13:48:15.2890	6,7049102E-003	-4,6906509E-003
03/09/2025 13:48:26.7890	1,2432210E-002	-4,6972213E-003
03/09/2025 13:48:38.2890	1,1159477E-002	-4,6875565E-003
03/09/2025 13:48:49.7890	1,1159477E-002	-4,6931719E-003
03/09/2025 13:49:01.2890	9,8867435E-003	-4,6958462E-003
03/09/2025 13:49:12.7890	8,6140092E-003	-4,7039823E-003
03/09/2025 13:49:24.2890	2,2503431E-003	-4,6972213E-003
03/09/2025 13:49:35.7890	1,3068578E-002	-4,6949671E-003
03/09/2025 13:49:47.2890	9,8867435E-003	-4,6946616E-003
03/09/2025 13:49:58.7890	4,7958097E-003	-4,6932101E-003
03/09/2025 13:50:10.2416	2,6505014E+001	8,8508921E-003
03/09/2025 13:50:21.7416	2,6507559E+001	9,2165386E-003
03/09/2025 13:50:33.2416	2,6504377E+001	9,2829680E-003
03/09/2025 13:50:44.7416	2,6505650E+001	9,3806833E-003
03/09/2025 13:50:56.2416	2,6507559E+001	9,4843181E-003
03/09/2025 13:51:07.7416	2,6509470E+001	9,5671350E-003
03/09/2025 13:51:19.2416	2,6504377E+001	9,6755074E-003
03/09/2025 13:51:30.7416	2,6505650E+001	9,7662313E-003
03/09/2025 13:51:42.2416	2,6512012E+001	9,8684160E-003
03/09/2025 13:51:53.7416	2,6511377E+001	9,9568469E-003
03/09/2025 13:52:05.1418	8,6140092E-003	-2,3596324E-003
03/09/2025 13:52:16.6418	1,7523142E-002	-3,6952447E-003
03/09/2025 13:52:28.1418	6,7049102E-003	-3,6895911E-003
03/09/2025 13:52:39.6418	1,1159477E-002	-3,6715989E-003
03/09/2025 13:52:51.1418	6,0685435E-003	-3,6753041E-003
03/09/2025 13:53:02.6418	1,1159477E-002	-3,6800792E-003
03/09/2025 13:53:14.1418	6,0685435E-003	-3,6753807E-003
03/09/2025 13:53:25.6418	4,7958097E-003	-3,6796592E-003
03/09/2025 13:53:37.1418	7,9776440E-003	-3,6761065E-003
03/09/2025 13:53:48.6418	2,8867100E-003	-3,6800792E-003
03/09/2025 13:54:00.1418	1,3068578E-002	-3,6826769E-003
03/09/2025 13:54:11.5420	-2,6487148E+001	-1,7323041E-002
03/09/2025 13:54:23.0420	-2,6480146E+001	-1,7574320E-002
03/09/2025 13:54:34.5420	-2,6479511E+001	-1,7644988E-002
03/09/2025 13:54:46.0420	-2,6488420E+001	-1,7743200E-002
03/09/2025 13:54:57.5420	-2,6484600E+001	-1,7837744E-002
03/09/2025 13:55:09.0420	-2,6484600E+001	-1,7933434E-002
03/09/2025 13:55:20.5420	-2,6487783E+001	-1,8027252E-002
03/09/2025 13:55:32.0420	-2,6483963E+001	-1,8123209E-002
03/09/2025 13:55:43.5420	-2,6485235E+001	-1,8220618E-002
03/09/2025 13:55:55.0420	-2,6480783E+001	-1,8310120E-002
03/09/2025 13:56:06.4422	5,3016685E+001	2,0093007E-002
03/09/2025 13:56:17.9422	5,3007137E+001	2,3069257E-002
03/09/2025 13:56:29.4422	5,3012867E+001	2,3189889E-002
03/09/2025 13:56:40.9422	5,3012230E+001	2,3374394E-002
03/09/2025 13:56:52.4422	5,3012867E+001	2,3557447E-002
03/09/2025 13:57:03.9422	5,3012867E+001	2,3757041E-002
03/09/2025 13:57:15.4422	5,3016685E+001	2,3934897E-002
03/09/2025 13:57:26.9422	5,3012230E+001	2,4130786E-002
03/09/2025 13:57:38.4422	5,3014778E+001	2,4340309E-002
03/09/2025 13:57:49.9422	5,3009686E+001	2,4521261E-002
03/09/2025 13:58:01.3426	7,3412773E-003	5,4121222E-003
03/09/2025 13:58:12.8426	5,4321769E-003	-2,5539922E-003
03/09/2025 13:58:24.3426	1,1159477E-002	-2,7162260E-003
03/09/2025 13:58:35.8426	5,4321769E-003	-2,6641216E-003
03/09/2025 13:58:47.3426	1,4341311E-002	-2,6712650E-003
03/09/2025 13:58:58.8426	7,9776440E-003	-2,6764218E-003
03/09/2025 13:59:10.3426	1,0523110E-002	-2,6813878E-003
03/09/2025 13:59:21.8426	1,6139771E-003	-2,6752760E-003
03/09/2025 13:59:33.3426	2,8867100E-003	-2,6744357E-003
03/09/2025 13:59:44.8426	2,2503431E-003	-2,6690876E-003
03/09/2025 13:59:56.3426	9,2503773E-003	-2,6776062E-003
03/09/2025 14:00:07.7428	-5,2979729E+001	-2,8966254E-002
03/09/2025 14:00:19.2428	-5,2975266E+001	-3,0445991E-002
03/09/2025 14:00:30.7428	-5,2983543E+001	-3,0574152E-002
03/09/2025 14:00:42.2428	-5,2975906E+001	-3,0752316E-002
03/09/2025 14:00:53.7428	-5,2980999E+001	-3,0965470E-002
03/09/2025 14:01:05.2428	-5,2980358E+001	-3,1136909E-002
03/09/2025 14:01:16.7428	-5,2977814E+001	-3,1352319E-002
03/09/2025 14:01:28.2428	-5,2973358E+001	-3,1547595E-002
03/09/2025 14:01:39.7428	-5,2973995E+001	-3,1733014E-002
03/09/2025 14:01:51.2428	-5,2980999E+001	-3,1941701E-002
03/09/2025 14:02:02.6430	7,9502274E+001	2,3041101E-002
03/09/2025 14:02:14.1430	7,9507347E+001	3,6622409E-002
03/09/2025 14:02:25.6430	7,9503532E+001	3,7024122E-002
03/09/2025 14:02:37.1430	7,9511810E+001	3,7240405E-002
03/09/2025 14:02:48.6430	7,9511177E+001	3,7556127E-002
03/09/2025 14:03:00.1430	7,9509903E+001	3,7859734E-002
03/09/2025 14:03:11.6429	7,9509903E+001	3,8136110E-002
03/09/2025 14:03:23.1429	7,9504814E+001	3,8441706E-002
03/09/2025 14:03:34.6429	7,9508629E+001	3,8715027E-002
03/09/2025 14:03:46.1429	7,9509903E+001	3,9014854E-002
03/09/2025 14:03:57.6429	7,9509262E+001	3,9330345E-002
03/09/2025 14:04:09.0433	1,3704944E-002	-5,4877857E-004
03/09/2025 14:04:20.5433	1,1795843E-002	-1,7726950E-003
03/09/2025 14:04:32.0433	2,2503431E-003	-1,6690211E-003
03/09/2025 14:04:43.5433	4,7958097E-003	-1,6769284E-003
03/09/2025 14:04:55.0433	8,6140092E-003	-1,6687919E-003
03/09/2025 14:05:06.5433	1,3068578E-002	-1,6743691E-003
03/09/2025 14:05:18.0433	1,0523110E-002	-1,6747129E-003
03/09/2025 14:05:29.5433	1,0523110E-002	-1,6762026E-003
03/09/2025 14:05:41.0433	1,1159477E-002	-1,6732231E-003
03/09/2025 14:05:52.5433	3,5230771E-003	-1,6828494E-003
03/09/2025 14:06:03.9435	-7,9480576E+001	-3,7246786E-002
03/09/2025 14:06:15.4435	-7,9480576E+001	-4,3177586E-002
03/09/2025 14:06:26.9435	-7,9471031E+001	-4,3457896E-002
03/09/2025 14:06:38.4435	-7,9476761E+001	-4,3732934E-002
03/09/2025 14:06:49.9435	-7,9471031E+001	-4,4027112E-002
03/09/2025 14:07:01.4435	-7,9473579E+001	-4,4298366E-002
03/09/2025 14:07:12.9435	-7,9482483E+001	-4,4623177E-002
03/09/2025 14:07:24.4435	-7,9474846E+001	-4,4877890E-002
03/09/2025 14:07:35.9435	-7,9481850E+001	-4,5204535E-002
03/09/2025 14:07:47.4435	-7,9478027E+001	-4,5504559E-002
03/09/2025 14:07:58.9435	-7,9481850E+001	-4,5788761E-002
03/09/2025 14:08:10.3437	1,0600822E+002	4,8740864E-002
03/09/2025 14:08:21.8437	1,0601522E+002	5,0902694E-002
03/09/2025 14:08:33.3437	1,0601076E+002	5,1124368E-002
03/09/2025 14:08:44.8437	1,0601331E+002	5,1484589E-002
03/09/2025 14:08:56.3437	1,0601140E+002	5,1890843E-002
03/09/2025 14:09:07.8437	1,0600949E+002	5,2312456E-002
03/09/2025 14:09:19.3437	1,0600885E+002	5,2673250E-002
03/09/2025 14:09:30.8437	1,0601776E+002	5,3084351E-002
03/09/2025 14:09:42.3437	1,0601076E+002	5,3481590E-002
03/09/2025 14:09:53.8437	1,0601331E+002	5,3853273E-002
03/09/2025 14:10:05.2441	5,4321769E-003	4,4058291E-003
03/09/2025 14:10:16.7441	7,9776440E-003	-7,8110874E-004
03/09/2025 14:10:28.2441	1,1795843E-002	-7,1364822E-004
03/09/2025 14:10:39.7441	7,3412773E-003	-6,6635705E-004
03/09/2025 14:10:51.2441	1,4341311E-002	-6,7525759E-004
03/09/2025 14:11:02.7441	6,7049102E-003	-6,7548675E-004
03/09/2025 14:11:14.2441	7,3412773E-003	-6,8366143E-004
03/09/2025 14:11:25.7441	3,5230771E-003	-6,7965052E-004
03/09/2025 14:11:37.2441	2,2503431E-003	-6,8675564E-004
03/09/2025 14:11:48.7441	7,3412773E-003	-6,7388237E-004
03/09/2025 14:12:00.2441	1,1795843E-002	-6,7953591E-004
03/09/2025 14:12:11.6443	-1,0596933E+002	-5,5331260E-002
03/09/2025 14:12:23.1443	-1,0597314E+002	-5,6326784E-002
03/09/2025 14:12:34.6443	-1,0597888E+002	-5,6612056E-002
03/09/2025 14:12:46.1443	-1,0597633E+002	-5,7007805E-002
03/09/2025 14:12:57.6443	-1,0597570E+002	-5,7451684E-002
03/09/2025 14:13:09.1443	-1,0596997E+002	-5,7819929E-002
03/09/2025 14:13:20.6443	-1,0597379E+002	-5,8219764E-002
03/09/2025 14:13:32.1443	-1,0597379E+002	-5,8646224E-002
03/09/2025 14:13:43.6443	-1,0598016E+002	-5,8981847E-002
03/09/2025 14:13:55.1443	-1,0597507E+002	-5,9445173E-002
03/09/2025 14:14:00.7445	-1,0596933E+002	-5,9658740E-002