File: data/phase_2a/Sergey/2/20.7/02 polarisation/SN50_C6aD1E1_hr 0,1MFeCN6_in_1M_KCl_3306mL_symmetric_balanced_4_point_PEIS_10mHz_200kHz_10mV_01_02_CP_C16.txt
time/s	I/mA	<Ewe/V>
31/08/2025 10:23:17.7940	6,0685435E-003	-6,7374390E-003
31/08/2025 10:23:29.2940	5,4321769E-003	-6,7133117E-003
31/08/2025 10:23:40.7940	7,3412773E-003	-6,7200353E-003
31/08/2025 10:23:52.2940	2,2503431E-003	-6,7204172E-003
31/08/2025 10:24:03.7940	6,7049102E-003	-6,7252303E-003
31/08/2025 10:24:15.2940	2,2503431E-003	-6,7158332E-003
31/08/2025 10:24:26.7940	6,0685435E-003	-6,7219837E-003
31/08/2025 10:24:38.2940	7,3412773E-003	-6,7170174E-003
31/08/2025 10:24:49.7940	1,4341311E-002	-6,7187361E-003
31/08/2025 10:25:01.2940	8,6140092E-003	-6,7229001E-003
31/08/2025 10:25:12.7940	4,7958097E-003	-6,7189657E-003
31/08/2025 10:25:24.2940	5,4321769E-003	-6,7204935E-003
31/08/2025 10:25:35.7940	9,8867435E-003	-6,7136176E-003
31/08/2025 10:25:47.2940	9,7761012E-004	-6,7189657E-003
31/08/2025 10:25:58.7940	5,4321769E-003	-6,7172847E-003
31/08/2025 10:26:10.2940	7,3412773E-003	-6,7144581E-003
31/08/2025 10:26:21.7940	8,6140092E-003	-6,7222887E-003
31/08/2025 10:26:33.2940	1,2432210E-002	-6,7220600E-003
31/08/2025 10:26:44.7940	7,9776440E-003	-6,7202258E-003
31/08/2025 10:26:56.2940	3,5230771E-003	-6,7250389E-003
31/08/2025 10:27:07.7940	9,8867435E-003	-6,7175142E-003
31/08/2025 10:27:19.2940	7,9776440E-003	-6,7182779E-003
31/08/2025 10:27:30.7940	1,3068578E-002	-6,7200353E-003
31/08/2025 10:27:42.2940	5,4321769E-003	-6,7183161E-003
31/08/2025 10:27:53.7940	7,9776440E-003	-6,7226710E-003
31/08/2025 10:28:05.2940	9,7761012E-004	-6,7253830E-003
31/08/2025 10:28:16.7940	7,3412773E-003	-6,7180106E-003
31/08/2025 10:28:28.2940	8,6140092E-003	-6,7208754E-003
31/08/2025 10:28:39.7940	3,5230771E-003	-6,7242370E-003
31/08/2025 10:28:51.2940	3,5230771E-003	-6,7230151E-003
31/08/2025 10:29:02.7940	1,1159477E-002	-6,7257653E-003
31/08/2025 10:29:14.2940	7,3412773E-003	-6,7269495E-003
31/08/2025 10:29:25.7940	4,7958097E-003	-6,7277895E-003
31/08/2025 10:29:37.2940	9,8867435E-003	-6,7293560E-003
31/08/2025 10:29:48.7940	6,0685435E-003	-6,7271399E-003
31/08/2025 10:30:00.2940	6,7049102E-003	-6,7253830E-003
31/08/2025 10:30:11.7940	1,3704944E-002	-6,7232437E-003
31/08/2025 10:30:23.2940	1,0523110E-002	-6,7280950E-003
31/08/2025 10:30:34.7940	4,1594426E-003	-6,7209522E-003
31/08/2025 10:30:46.2940	4,7958097E-003	-6,7271786E-003
31/08/2025 10:30:57.7940	1,0523110E-002	-6,7284768E-003
31/08/2025 10:31:09.2940	4,7958097E-003	-6,7315712E-003
31/08/2025 10:31:20.7940	2,2503431E-003	-6,7296233E-003
31/08/2025 10:31:32.2940	3,5230771E-003	-6,7306929E-003
31/08/2025 10:31:43.7940	6,7049102E-003	-6,7314948E-003
31/08/2025 10:31:55.2940	4,1594426E-003	-6,7251157E-003
31/08/2025 10:32:06.7940	1,6139771E-003	-6,7282864E-003
31/08/2025 10:32:18.2940	7,9776440E-003	-6,7300433E-003
31/08/2025 10:32:29.7940	9,8867435E-003	-6,7273313E-003
31/08/2025 10:32:41.2940	9,2503773E-003	-6,7238170E-003
31/08/2025 10:32:52.7940	1,1795843E-002	-6,7347805E-003
31/08/2025 10:33:04.2940	1,1159477E-002	-6,7312275E-003
31/08/2025 10:33:15.7940	1,6139771E-003	-6,7318771E-003
31/08/2025 10:33:27.2466	2,6509470E+001	6,8522198E-003
31/08/2025 10:33:38.7466	2,6505014E+001	7,3847608E-003
31/08/2025 10:33:50.2466	2,6505014E+001	7,4496623E-003
31/08/2025 10:34:01.7466	2,6512012E+001	7,5412649E-003
31/08/2025 10:34:13.2466	2,6506285E+001	7,6324474E-003
31/08/2025 10:34:24.7466	2,6505650E+001	7,7322251E-003
31/08/2025 10:34:36.2466	2,6506285E+001	7,8239040E-003
31/08/2025 10:34:47.7466	2,6506924E+001	7,9365168E-003
31/08/2025 10:34:59.2466	2,6505650E+001	8,0345757E-003
31/08/2025 10:35:10.7466	2,6512012E+001	8,1422599E-003
31/08/2025 10:35:22.1468	1,0523110E-002	-4,2731576E-003
31/08/2025 10:35:33.6468	6,0685435E-003	-5,6878049E-003
31/08/2025 10:35:45.1468	7,3412773E-003	-5,7426593E-003
31/08/2025 10:35:56.6468	6,7049102E-003	-5,7177530E-003
31/08/2025 10:36:08.1468	1,2432210E-002	-5,7163015E-003
31/08/2025 10:36:19.6468	1,2432210E-002	-5,7120235E-003
31/08/2025 10:36:31.1468	6,0685435E-003	-5,7155755E-003
31/08/2025 10:36:42.6468	9,8867435E-003	-5,7153464E-003
31/08/2025 10:36:54.1468	8,6140092E-003	-5,7117557E-003
31/08/2025 10:37:05.6468	3,5230771E-003	-5,7175234E-003
31/08/2025 10:37:17.1468	3,5230771E-003	-5,7097310E-003
31/08/2025 10:37:28.5470	-2,6476965E+001	-1,9409230E-002
31/08/2025 10:37:40.0470	-2,6491598E+001	-1,9827362E-002
31/08/2025 10:37:51.5470	-2,6483963E+001	-1,9906972E-002
31/08/2025 10:38:03.0470	-2,6486509E+001	-1,9996433E-002
31/08/2025 10:38:14.5470	-2,6485235E+001	-2,0075049E-002
31/08/2025 10:38:26.0470	-2,6484600E+001	-2,0170663E-002
31/08/2025 10:38:37.5470	-2,6483328E+001	-2,0277316E-002
31/08/2025 10:38:49.0470	-2,6481419E+001	-2,0373808E-002
31/08/2025 10:39:00.5470	-2,6482693E+001	-2,0475917E-002
31/08/2025 10:39:12.0470	-2,6486509E+001	-2,0568473E-002
31/08/2025 10:39:23.4472	5,3009045E+001	1,8019579E-002
31/08/2025 10:39:34.9472	5,3015415E+001	2,1352345E-002
31/08/2025 10:39:46.4472	5,3012230E+001	2,1620849E-002
31/08/2025 10:39:57.9472	5,3019230E+001	2,1757450E-002
31/08/2025 10:40:09.4472	5,3011597E+001	2,1940390E-002
31/08/2025 10:40:20.9472	5,3010960E+001	2,2137690E-002
31/08/2025 10:40:32.4472	5,3012867E+001	2,2315396E-002
31/08/2025 10:40:43.9472	5,3014778E+001	2,2517167E-002
31/08/2025 10:40:55.4472	5,3015415E+001	2,2716912E-002
31/08/2025 10:41:06.9472	5,3006504E+001	2,2896297E-002
31/08/2025 10:41:18.3476	3,5230771E-003	3,3200139E-003
31/08/2025 10:41:29.8476	6,7049102E-003	-4,3314500E-003
31/08/2025 10:41:41.3476	1,0523110E-002	-4,7696000E-003
31/08/2025 10:41:52.8476	6,7049102E-003	-4,7239130E-003
31/08/2025 10:42:04.3476	9,2503773E-003	-4,7015282E-003
31/08/2025 10:42:15.8476	9,2503773E-003	-4,7001527E-003
31/08/2025 10:42:27.3476	1,6139771E-003	-4,7033997E-003
31/08/2025 10:42:38.8476	4,1594426E-003	-4,7012987E-003
31/08/2025 10:42:50.3476	9,8867435E-003	-4,6997708E-003
31/08/2025 10:43:01.8476	7,9776440E-003	-4,7008786E-003
31/08/2025 10:43:13.3476	1,2432210E-002	-4,6921694E-003
31/08/2025 10:43:24.7478	-5,2980999E+001	-3,1072343E-002
31/08/2025 10:43:36.2478	-5,2973995E+001	-3,2849122E-002
31/08/2025 10:43:47.7478	-5,2979088E+001	-3,3068847E-002
31/08/2025 10:43:59.2478	-5,2979729E+001	-3,3228524E-002
31/08/2025 10:44:10.7478	-5,2981636E+001	-3,3413369E-002
31/08/2025 10:44:22.2478	-5,2977814E+001	-3,3616323E-002
31/08/2025 10:44:33.7478	-5,2977180E+001	-3,3817634E-002
31/08/2025 10:44:45.2478	-5,2978451E+001	-3,4017269E-002
31/08/2025 10:44:56.7478	-5,2975906E+001	-3,4201160E-002
31/08/2025 10:45:08.2478	-5,2968910E+001	-3,4390017E-002
31/08/2025 10:45:19.6480	7,9514992E+001	2,1428285E-002
31/08/2025 10:45:31.1480	7,9515625E+001	3,4685623E-002
31/08/2025 10:45:42.6480	7,9507347E+001	3,5721786E-002
31/08/2025 10:45:54.1480	7,9509262E+001	3,5899490E-002
31/08/2025 10:46:05.6480	7,9507347E+001	3,6150005E-002
31/08/2025 10:46:17.1480	7,9510536E+001	3,6433674E-002
31/08/2025 10:46:28.6479	7,9505440E+001	3,6758907E-002
31/08/2025 10:46:40.1479	7,9509262E+001	3,7042771E-002
31/08/2025 10:46:51.6479	7,9510536E+001	3,7352685E-002
31/08/2025 10:47:03.1479	7,9500992E+001	3,7642464E-002
31/08/2025 10:47:14.6479	7,9511177E+001	3,7927970E-002
31/08/2025 10:47:26.0483	9,2503773E-003	-2,0330159E-003
31/08/2025 10:47:37.5483	1,3068578E-002	-3,7541387E-003
31/08/2025 10:47:49.0483	1,3068578E-002	-3,7269788E-003
31/08/2025 10:48:00.5483	9,8867435E-003	-3,6767465E-003
31/08/2025 10:48:12.0483	8,6140092E-003	-3,6669290E-003
31/08/2025 10:48:23.5483	9,8867435E-003	-3,6660123E-003
31/08/2025 10:48:35.0483	6,0685435E-003	-3,6676547E-003
31/08/2025 10:48:46.5483	9,8867435E-003	-3,6655157E-003
31/08/2025 10:48:58.0483	9,2503773E-003	-3,6669672E-003
31/08/2025 10:49:09.5483	4,1594426E-003	-3,6671581E-003
31/08/2025 10:49:20.9485	-7,9472939E+001	-3,9568745E-002
31/08/2025 10:49:32.4485	-7,9474213E+001	-4,5610014E-002
31/08/2025 10:49:43.9485	-7,9473579E+001	-4,6197679E-002
31/08/2025 10:49:55.4485	-7,9474846E+001	-4,6429168E-002
31/08/2025 10:50:06.9485	-7,9470398E+001	-4,6710547E-002
31/08/2025 10:50:18.4485	-7,9476761E+001	-4,6989977E-002
31/08/2025 10:50:29.9485	-7,9473579E+001	-4,7310438E-002
31/08/2025 10:50:41.4485	-7,9480576E+001	-4,7596663E-002
31/08/2025 10:50:52.9485	-7,9465935E+001	-4,7918495E-002
31/08/2025 10:51:04.4485	-7,9472305E+001	-4,8230510E-002
31/08/2025 10:51:15.9485	-7,9470398E+001	-4,8528928E-002
31/08/2025 10:51:27.3487	1,0600822E+002	4,6421811E-002
31/08/2025 10:51:38.8487	1,0601140E+002	4,9821045E-002
31/08/2025 10:51:50.3487	1,0601076E+002	5,0104525E-002
31/08/2025 10:52:01.8487	1,0601457E+002	5,0396942E-002
31/08/2025 10:52:13.3487	1,0600949E+002	5,0769351E-002
31/08/2025 10:52:24.8487	1,0601266E+002	5,1176328E-002
31/08/2025 10:52:36.3487	1,0601394E+002	5,1573072E-002
31/08/2025 10:52:47.8487	1,0600885E+002	5,1968478E-002
31/08/2025 10:52:59.3487	1,0600631E+002	5,2383859E-002
31/08/2025 10:53:10.8487	1,0600885E+002	5,2779797E-002
31/08/2025 10:53:22.2491	4,1594426E-003	2,9919937E-003
31/08/2025 10:53:33.7491	7,3412773E-003	-2,5493223E-003
31/08/2025 10:53:45.2491	8,6140092E-003	-2,7595730E-003
31/08/2025 10:53:56.7491	8,6140092E-003	-2,6787044E-003
31/08/2025 10:54:08.2491	6,7049102E-003	-2,6495198E-003
31/08/2025 10:54:19.7491	3,5230771E-003	-2,6478772E-003
31/08/2025 10:54:31.2491	6,7049102E-003	-2,6452034E-003
31/08/2025 10:54:42.7491	9,8867435E-003	-2,6526141E-003
31/08/2025 10:54:54.2491	3,5230771E-003	-2,6432935E-003
31/08/2025 10:55:05.7491	1,4341311E-002	-2,6430644E-003
31/08/2025 10:55:17.2491	7,3412773E-003	-2,6426821E-003
31/08/2025 10:55:28.6493	-1,0596933E+002	-5,7615094E-002
31/08/2025 10:55:40.1493	-1,0598398E+002	-5,9312876E-002
31/08/2025 10:55:51.6493	-1,0597633E+002	-5,9641127E-002
31/08/2025 10:56:03.1493	-1,0597633E+002	-6,0012236E-002
31/08/2025 10:56:14.6493	-1,0598079E+002	-6,0408022E-002
31/08/2025 10:56:26.1493	-1,0597443E+002	-6,0816109E-002
31/08/2025 10:56:37.6493	-1,0597888E+002	-6,1227098E-002
31/08/2025 10:56:49.1493	-1,0597825E+002	-6,1618682E-002
31/08/2025 10:57:00.6493	-1,0597570E+002	-6,2041860E-002
31/08/2025 10:57:12.1493	-1,0597570E+002	-6,2429167E-002
31/08/2025 10:57:17.7495	-1,0597314E+002	-6,2677227E-002