File: data/phase_2a/Sergey/2/20.7/02 polarisation/SN50_C6aD1E1_hr 0,1MFeCN6_in_1M_KCl_3306mL_symmetric_balanced_4_point_PEIS_10mHz_200kHz_10mV_01_03_CP_C16.txt
time/s	I/mA	<Ewe/V>
31/08/2025 10:57:17.8517	1,0523378E-001	-2,6319185E-002
31/08/2025 10:57:34.6517	1,7523590E-001	-6,9790669E-003
31/08/2025 10:57:51.4517	9,8869957E-002	-6,9130198E-003
31/08/2025 10:58:08.2517	1,3068911E-001	-6,9693262E-003
31/08/2025 10:58:25.0517	1,7523590E-001	-6,9690584E-003
31/08/2025 10:58:41.8517	1,4341676E-001	-6,9763549E-003
31/08/2025 10:58:58.6517	7,3414646E-002	-6,9706244E-003
31/08/2025 10:59:15.4517	1,5614443E-001	-6,9659264E-003
31/08/2025 10:59:32.2515	1,3258743E+002	6,2821068E-002
31/08/2025 10:59:49.0515	1,3254289E+002	6,4044483E-002
31/08/2025 11:00:05.8515	1,3268288E+002	6,4673483E-002
31/08/2025 11:00:22.6515	1,3256834E+002	6,5394156E-002
31/08/2025 11:00:39.4515	1,3256197E+002	6,6119298E-002
31/08/2025 11:00:56.2515	1,3263834E+002	6,6820607E-002
31/08/2025 11:01:13.0515	1,3263199E+002	6,7577496E-002
31/08/2025 11:01:29.7517	1,2432528E-001	-8,7904313E-004
31/08/2025 11:01:46.5517	9,8869957E-002	-2,0018832E-003
31/08/2025 11:02:03.3517	1,1159762E-001	-1,8890033E-003
31/08/2025 11:02:20.1517	1,6887209E-001	-1,8873225E-003
31/08/2025 11:02:36.9517	1,1159762E-001	-1,8869787E-003
31/08/2025 11:02:53.7517	1,1796144E-001	-1,8870933E-003
31/08/2025 11:03:10.5517	1,5614443E-001	-1,8945805E-003
31/08/2025 11:03:27.2519	-1,3241513E+002	-6,9374472E-002
31/08/2025 11:03:44.0519	-1,3234514E+002	-7,2491445E-002
31/08/2025 11:04:00.8519	-1,3235150E+002	-7,3090985E-002
31/08/2025 11:04:17.6519	-1,3242787E+002	-7,3857732E-002
31/08/2025 11:04:34.4519	-1,3243423E+002	-7,4634597E-002
31/08/2025 11:04:51.2519	-1,3240242E+002	-7,5380981E-002
31/08/2025 11:05:08.0519	-1,3238332E+002	-7,6132521E-002
31/08/2025 11:05:24.7521	1,5914371E+002	6,7959115E-002
31/08/2025 11:05:41.5521	1,5911188E+002	7,8047372E-002
31/08/2025 11:05:58.3521	1,5904185E+002	7,8559168E-002
31/08/2025 11:06:15.1521	1,5906096E+002	7,9417318E-002
31/08/2025 11:06:31.9521	1,5918188E+002	8,0305427E-002
31/08/2025 11:06:48.7521	1,5907368E+002	8,1215262E-002
31/08/2025 11:07:05.5521	1,5904825E+002	8,2059175E-002
31/08/2025 11:07:22.2525	9,2506140E-002	7,7762310E-003
31/08/2025 11:07:39.0525	9,8869957E-002	-1,1152696E-003
31/08/2025 11:07:55.8525	1,4341676E-001	-9,6533605E-004
31/08/2025 11:08:12.6525	6,7050815E-002	-9,2472986E-004
31/08/2025 11:08:29.4525	1,1796144E-001	-9,2621968E-004
31/08/2025 11:08:46.2525	7,3414646E-002	-9,2816784E-004
31/08/2025 11:09:03.0525	4,7959324E-002	-9,3202596E-004
31/08/2025 11:09:19.7527	-1,5890138E+002	-6,7131422E-002
31/08/2025 11:09:36.5527	-1,5890776E+002	-8,5213110E-002
31/08/2025 11:09:53.3527	-1,5881865E+002	-8,6107932E-002
31/08/2025 11:10:10.1527	-1,5886320E+002	-8,6943321E-002
31/08/2025 11:10:26.9527	-1,5893321E+002	-8,7918095E-002
31/08/2025 11:10:43.7527	-1,5890776E+002	-8,8831991E-002
31/08/2025 11:11:00.5527	-1,5893958E+002	-8,9767270E-002
31/08/2025 11:11:17.3527	-1,5885048E+002	-9,0643190E-002
31/08/2025 11:11:34.0529	1,8563631E+002	9,0951353E-002
31/08/2025 11:11:50.8529	1,8562360E+002	9,2619196E-002
31/08/2025 11:12:07.6529	1,8560449E+002	9,3420118E-002
31/08/2025 11:12:24.4529	1,8558540E+002	9,4466455E-002
31/08/2025 11:12:41.2529	1,8562360E+002	9,5561706E-002
31/08/2025 11:12:58.0529	1,8561722E+002	9,6617088E-002
31/08/2025 11:13:14.8529	1,8567448E+002	9,7690687E-002
31/08/2025 11:13:31.5533	1,4341676E-001	7,7328226E-004
31/08/2025 11:13:48.3533	1,2432528E-001	-1,1375156E-004
31/08/2025 11:14:05.1533	7,3414646E-002	3,0757677E-005
31/08/2025 11:14:21.9533	1,5614443E-001	4,0460385E-005
31/08/2025 11:14:38.7533	1,4341676E-001	3,4119250E-005
31/08/2025 11:14:55.5533	1,6887209E-001	2,4301940E-005
31/08/2025 11:15:12.3533	1,1159762E-001	3,1292471E-005
31/08/2025 11:15:29.0535	-1,8540038E+002	-9,5802315E-002
31/08/2025 11:15:45.8535	-1,8536220E+002	-9,9092834E-002
31/08/2025 11:16:02.6535	-1,8534946E+002	-1,0000890E-001
31/08/2025 11:16:19.4535	-1,8535582E+002	-1,0107295E-001
31/08/2025 11:16:36.2535	-1,8538129E+002	-1,0222597E-001
31/08/2025 11:16:53.0535	-1,8529855E+002	-1,0332409E-001
31/08/2025 11:17:09.8535	-1,8536220E+002	-1,0445706E-001
31/08/2025 11:17:26.5537	2,1212257E+002	9,6861906E-002
31/08/2025 11:17:43.3537	2,1206529E+002	1,0665351E-001
31/08/2025 11:18:00.1537	2,1203986E+002	1,0742186E-001
31/08/2025 11:18:16.9537	2,1212894E+002	1,0860696E-001
31/08/2025 11:18:33.7537	2,1212894E+002	1,0981682E-001
31/08/2025 11:18:50.5537	2,1215439E+002	1,1108112E-001
31/08/2025 11:19:07.3537	2,1211621E+002	1,1233383E-001
31/08/2025 11:19:24.0541	1,9432738E-001	8,5050799E-003
31/08/2025 11:19:40.8541	1,2432528E-001	7,1540975E-004
31/08/2025 11:19:57.6541	1,0523378E-001	9,3952706E-004
31/08/2025 11:20:14.4541	1,2432528E-001	9,8865177E-004
31/08/2025 11:20:31.2541	1,6887209E-001	9,8601601E-004
31/08/2025 11:20:48.0541	1,3068911E-001	9,8444975E-004
31/08/2025 11:21:04.8541	2,1978271E-001	9,8593964E-004
31/08/2025 11:21:21.5543	-2,1183574E+002	-9,5366038E-002
31/08/2025 11:21:38.3543	-2,1181664E+002	-1,1193215E-001
31/08/2025 11:21:55.1543	-2,1179755E+002	-1,1305416E-001
31/08/2025 11:22:11.9543	-2,1178482E+002	-1,1422409E-001
31/08/2025 11:22:28.7543	-2,1185481E+002	-1,1552235E-001
31/08/2025 11:22:45.5543	-2,1184845E+002	-1,1684214E-001
31/08/2025 11:23:02.3543	-2,1176572E+002	-1,1817141E-001
31/08/2025 11:23:19.0545	2,3859610E+002	6,0909711E-002
31/08/2025 11:23:35.8545	2,3857063E+002	1,1975163E-001
31/08/2025 11:23:52.6545	2,3854518E+002	1,2144357E-001
31/08/2025 11:24:09.4545	2,3860883E+002	1,2255213E-001
31/08/2025 11:24:26.2545	2,3864066E+002	1,2400948E-001
31/08/2025 11:24:43.0545	2,3867883E+002	1,2541106E-001
31/08/2025 11:24:59.8545	2,3862791E+002	1,2689821E-001
31/08/2025 11:25:16.6545	2,3862791E+002	1,2832959E-001
31/08/2025 11:25:33.3549	1,0523378E-001	2,3302231E-003
31/08/2025 11:25:50.1549	1,0523378E-001	1,8000122E-003
31/08/2025 11:26:06.9549	9,2506140E-002	1,9460875E-003
31/08/2025 11:26:23.7549	1,6887209E-001	1,9520849E-003
31/08/2025 11:26:40.5549	1,3705294E-001	1,9429170E-003
31/08/2025 11:26:57.3549	1,3068911E-001	1,9483413E-003
31/08/2025 11:27:14.1549	1,2432528E-001	1,9495256E-003
31/08/2025 11:27:30.8551	-2,3833472E+002	-1,2276461E-001
31/08/2025 11:27:47.6551	-2,3834106E+002	-1,2603007E-001
31/08/2025 11:28:04.4551	-2,3839198E+002	-1,2729795E-001
31/08/2025 11:28:21.2551	-2,3829652E+002	-1,2874351E-001
31/08/2025 11:28:38.0551	-2,3826471E+002	-1,3026661E-001
31/08/2025 11:28:54.8551	-2,3832834E+002	-1,3177697E-001
31/08/2025 11:29:11.6551	-2,3825835E+002	-1,3329850E-001
31/08/2025 11:29:28.3553	2,6503146E+002	1,2639096E-001
31/08/2025 11:29:45.1553	2,6506326E+002	1,3552259E-001
31/08/2025 11:30:01.9553	2,6517145E+002	1,3662285E-001
31/08/2025 11:30:18.7553	2,6508234E+002	1,3813624E-001
31/08/2025 11:30:35.5553	2,6510147E+002	1,3984755E-001
31/08/2025 11:30:52.3553	2,6508871E+002	1,4147663E-001
31/08/2025 11:31:09.1553	2,6506326E+002	1,4323108E-001
31/08/2025 11:31:25.8557	1,1796144E-001	8,9928508E-003
31/08/2025 11:31:42.6557	1,0523378E-001	2,5884144E-003
31/08/2025 11:31:59.4557	1,4341676E-001	2,8714738E-003
31/08/2025 11:32:16.2557	7,9778478E-002	2,9140664E-003
31/08/2025 11:32:33.0557	1,3068911E-001	2,9145631E-003
31/08/2025 11:32:49.8557	9,2506140E-002	2,9123474E-003
31/08/2025 11:33:06.6557	1,6250826E-001	2,9109339E-003
31/08/2025 11:33:23.3559	-2,6487823E+002	-1,2393031E-001
31/08/2025 11:33:40.1559	-2,6483371E+002	-1,3889362E-001
31/08/2025 11:33:56.9559	-2,6479550E+002	-1,4027973E-001
31/08/2025 11:34:13.7559	-2,6474460E+002	-1,4192899E-001
31/08/2025 11:34:30.5559	-2,6470004E+002	-1,4358838E-001
31/08/2025 11:34:47.3559	-2,6476367E+002	-1,4538305E-001
31/08/2025 11:35:04.1559	-2,6484641E+002	-1,4708862E-001
31/08/2025 11:35:20.8561	2,9158771E+002	1,0112766E-001
31/08/2025 11:35:37.6561	2,9155588E+002	1,4912197E-001
31/08/2025 11:35:54.4561	2,9163861E+002	1,5074353E-001
31/08/2025 11:36:11.2561	2,9156860E+002	1,5236969E-001
31/08/2025 11:36:28.0561	2,9161316E+002	1,5418410E-001
31/08/2025 11:36:44.8561	2,9158771E+002	1,5612696E-001
31/08/2025 11:37:01.6561	2,9156223E+002	1,5801033E-001
31/08/2025 11:37:18.3565	1,6250826E-001	5,1433835E-002
31/08/2025 11:37:35.1565	4,7959324E-002	3,8949186E-003
31/08/2025 11:37:51.9565	1,3705294E-001	3,7168700E-003
31/08/2025 11:38:08.7565	1,0523378E-001	3,8676439E-003
31/08/2025 11:38:25.5565	1,7523590E-001	3,8684080E-003
31/08/2025 11:38:42.3565	1,4341676E-001	3,8716549E-003
31/08/2025 11:38:59.1565	9,2506140E-002	3,8700886E-003
31/08/2025 11:39:15.9565	9,2506140E-002	3,8707762E-003
31/08/2025 11:39:32.6567	-2,9136447E+002	-1,5011655E-001
31/08/2025 11:39:49.4567	-2,9135812E+002	-1,5339820E-001
31/08/2025 11:40:06.2567	-2,9132629E+002	-1,5500331E-001
31/08/2025 11:40:23.0567	-2,9131995E+002	-1,5695398E-001
31/08/2025 11:40:39.8567	-2,9125632E+002	-1,5886365E-001
31/08/2025 11:40:56.6567	-2,9135178E+002	-1,6091983E-001
31/08/2025 11:41:13.4567	-2,9138358E+002	-1,6289009E-001
31/08/2025 11:41:30.1569	3,1816940E+002	1,5680088E-001
31/08/2025 11:41:46.9569	3,1817581E+002	1,6523728E-001
31/08/2025 11:42:03.7569	3,1811853E+002	1,6664970E-001
31/08/2025 11:42:20.5569	3,1822668E+002	1,6877632E-001
31/08/2025 11:42:37.3569	3,1822031E+002	1,7091198E-001
31/08/2025 11:42:54.1569	3,1809943E+002	1,7308646E-001
31/08/2025 11:43:10.9569	3,1818851E+002	1,7528179E-001
31/08/2025 11:43:27.6573	9,8869957E-002	9,4952909E-003
31/08/2025 11:43:44.4573	1,4341676E-001	4,4749416E-003
31/08/2025 11:44:01.2573	9,2506140E-002	4,8010140E-003
31/08/2025 11:44:18.0573	1,2432528E-001	4,8436066E-003
31/08/2025 11:44:34.8573	1,5614443E-001	4,8353551E-003
31/08/2025 11:44:51.6573	1,7523590E-001	4,8345150E-003
31/08/2025 11:45:08.4573	1,3705294E-001	4,8320321E-003
31/08/2025 11:45:25.1575	-3,1779346E+002	-1,5290180E-001
31/08/2025 11:45:41.9575	-3,1785712E+002	-1,6632549E-001
31/08/2025 11:45:58.7575	-3,1786984E+002	-1,6817521E-001
31/08/2025 11:46:15.5575	-3,1791440E+002	-1,7020179E-001
31/08/2025 11:46:32.3575	-3,1784433E+002	-1,7246523E-001
31/08/2025 11:46:49.1575	-3,1788254E+002	-1,7467754E-001
31/08/2025 11:47:05.9575	-3,1783801E+002	-1,7703244E-001
31/08/2025 11:47:17.8577	-3,1792075E+002	-1,7874682E-001