File: data/phase_2a/Sergey/3/3.3/01 eis/SN50_C7D1_lr 0,1MFeCN6_in_1M_KCl_3306mL_symmetric_balanced_4_point_PEIS_10mV_C16.txt
time/s	freq/Hz	Re(Z)/Ohm	-Im(Z)/Ohm
02/09/2025 16:42:31.1975	1,9999814E+005	2,5552094E-001	-1,9603277E-002
02/09/2025 16:42:32.5015	1,0022640E+005	2,7807152E-001	-4,6165371E-003
02/09/2025 16:42:37.1635	5,0224539E+004	2,8117368E-001	-1,3541416E-003
02/09/2025 16:42:38.7455	2,5172580E+004	2,8225219E-001	2,6508863E-004
02/09/2025 16:42:40.0495	1,2618766E+004	2,8306612E-001	1,3871978E-003
02/09/2025 16:42:41.5573	6,3238188E+003	2,8390250E-001	2,2224502E-003
02/09/2025 16:42:43.1849	3,1669595E+003	2,8498992E-001	2,5709635E-003
02/09/2025 16:42:44.5859	1,5884750E+003	2,8641012E-001	3,1385825E-003
02/09/2025 16:42:45.9857	7,9525409E+002	2,8779662E-001	3,4122909E-003
02/09/2025 16:42:47.3864	3,9859698E+002	2,8956166E-001	3,9514201E-003
02/09/2025 16:42:48.7850	1,9980818E+002	2,9117271E-001	4,4617406E-003
02/09/2025 16:42:50.1865	1,0016024E+002	2,9331833E-001	5,0511202E-003
02/09/2025 16:42:51.6019	5,0208866E+001	2,9546741E-001	5,9482655E-003
02/09/2025 16:42:52.9806	2,5136747E+001	2,9816508E-001	6,8768244E-003
02/09/2025 16:42:54.4399	1,2600809E+001	3,0115694E-001	8,2629817E-003
02/09/2025 16:42:55.8602	6,3105812E+000	3,0460006E-001	9,9745244E-003
02/09/2025 16:42:57.6097	3,1655185E+000	3,0876595E-001	1,2317217E-002
02/09/2025 16:43:00.9471	1,5846856E+000	3,1357992E-001	1,5681904E-002
02/09/2025 16:43:08.3191	7,9443753E-001	3,1950250E-001	2,2037148E-002
02/09/2025 16:43:21.2213	3,9867833E-001	3,2619622E-001	3,2591179E-002
02/09/2025 16:43:46.8554	1,9980818E-001	3,3917534E-001	4,9337588E-002
02/09/2025 16:44:37.8956	1,0013975E-001	3,6094135E-001	7,4172080E-002
02/09/2025 16:46:19.6709	5,0154075E-002	3,9382058E-001	1,0513387E-001
02/09/2025 16:49:42.6833	2,5144994E-002	4,3950677E-001	1,4800148E-001
02/09/2025 16:56:27.7706	1,2576789E-002	5,1206267E-001	2,0681034E-001
02/09/2025 16:59:59.0635	1,5885727E+005	2,6905537E-001	-1,2904679E-002
02/09/2025 17:00:01.4855	7,9609563E+004	2,7931881E-001	-2,6723891E-003
02/09/2025 17:00:05.1675	3,9897566E+004	2,8123903E-001	-6,2145403E-004
02/09/2025 17:00:06.4715	1,9995176E+004	2,8201887E-001	8,3797117E-004
02/09/2025 17:00:07.7735	1,0020785E+004	2,8276694E-001	1,7311441E-003
02/09/2025 17:00:09.3177	5,0216069E+003	2,8387043E-001	2,4671583E-003
02/09/2025 17:00:10.9417	2,5158047E+003	2,8503242E-001	2,7661447E-003
02/09/2025 17:00:12.3437	1,2604036E+003	2,8642851E-001	3,2066680E-003
02/09/2025 17:00:13.7452	6,3181964E+002	2,8786811E-001	3,5791779E-003
02/09/2025 17:00:15.1437	3,1672299E+002	2,8945607E-001	4,2405548E-003
02/09/2025 17:00:16.5466	1,5862943E+002	2,9140589E-001	4,7581354E-003
02/09/2025 17:00:17.9490	7,9516548E+001	2,9342672E-001	5,3745303E-003
02/09/2025 17:00:19.3615	3,9859695E+001	2,9582381E-001	6,2466678E-003
02/09/2025 17:00:20.7410	1,9980818E+001	2,9862890E-001	7,2975275E-003
02/09/2025 17:00:22.1975	1,0016025E+001	3,0184555E-001	8,9061232E-003
02/09/2025 17:00:23.6212	5,0144420E+000	3,0532658E-001	1,0529823E-002
02/09/2025 17:00:25.7808	2,5136747E+000	3,1002790E-001	1,3026370E-002
02/09/2025 17:00:30.7920	1,2596742E+000	3,1456816E-001	1,7290756E-002
02/09/2025 17:00:38.9786	6,3126212E-001	3,2056707E-001	2,5070699E-002
02/09/2025 17:00:55.1979	3,1619310E-001	3,2961905E-001	3,7881542E-002
02/09/2025 17:01:27.4462	1,5846856E-001	3,4556490E-001	5,6455098E-002
02/09/2025 17:02:31.6872	7,9421178E-002	3,6900115E-001	8,3093315E-002
02/09/2025 17:04:39.8019	3,9804459E-002	4,0658027E-001	1,1938896E-001
02/09/2025 17:08:55.3702	1,9949391E-002	4,6102464E-001	1,6496667E-001
02/09/2025 17:17:25.0892	1,0009170E-002	5,4013854E-001	2,2703828E-001
02/09/2025 17:17:26.7936	1,2618765E+005	2,7451083E-001	-9,0785744E-003
02/09/2025 17:17:30.4766	6,3233004E+004	2,7950996E-001	-2,0128903E-003
02/09/2025 17:17:32.7586	3,1686090E+004	2,8093418E-001	-2,6820446E-004
02/09/2025 17:17:34.0606	1,5884798E+004	2,8164580E-001	1,0197182E-003
02/09/2025 17:17:35.4198	7,9597607E+003	2,8264055E-001	1,9700164E-003
02/09/2025 17:17:37.1631	3,9861731E+003	2,8373775E-001	2,6105433E-003
02/09/2025 17:17:38.5640	1,9980818E+003	2,8496164E-001	2,9502024E-003
02/09/2025 17:17:39.9635	1,0016024E+003	2,8629977E-001	3,2631522E-003
02/09/2025 17:17:41.3630	5,0208865E+002	2,8791147E-001	3,8448963E-003
02/09/2025 17:17:42.7605	2,5169135E+002	2,8955126E-001	4,2852112E-003
02/09/2025 17:17:44.1633	1,2600809E+002	2,9157251E-001	4,9114437E-003
02/09/2025 17:17:45.5797	6,3160763E+001	2,9368299E-001	5,6625297E-003
02/09/2025 17:17:46.9593	3,1672298E+001	2,9623851E-001	6,3555152E-003
02/09/2025 17:17:48.3370	1,5857577E+001	2,9917565E-001	7,7562151E-003
02/09/2025 17:17:49.9243	7,9557004E+000	3,0247819E-001	9,3646254E-003
02/09/2025 17:17:51.3458	3,9859698E+000	3,0649319E-001	1,1416086E-002
02/09/2025 17:17:54.0248	1,9970603E+000	3,1070504E-001	1,4491189E-002
02/09/2025 17:18:00.0812	1,0000639E+000	3,1573272E-001	1,9033764E-002
02/09/2025 17:18:10.3582	5,0118679E-001	3,2241875E-001	2,8533561E-002
02/09/2025 17:18:30.7480	2,5117347E-001	3,3376363E-001	4,3452561E-002
02/09/2025 17:19:11.3218	1,2590654E-001	3,5169208E-001	6,4211704E-002
02/09/2025 17:20:32.1765	6,3101739E-002	3,7924460E-001	9,4514467E-002
02/09/2025 17:23:13.5091	3,1592205E-002	4,2222917E-001	1,3346906E-001
02/09/2025 17:28:35.0655	1,5860692E-002	4,8297763E-001	1,8334317E-001
02/09/2025 17:34:53.0726	1,9999814E+005	2,5449014E-001	-1,8206466E-002
02/09/2025 17:34:54.3746	1,0022640E+005	2,7666786E-001	-4,2955205E-003
02/09/2025 17:34:59.0366	5,0224539E+004	2,7974707E-001	-1,2358892E-003
02/09/2025 17:35:00.6196	2,5172580E+004	2,8082651E-001	2,9788795E-004
02/09/2025 17:35:01.9216	1,2618766E+004	2,8158644E-001	1,4205223E-003
02/09/2025 17:35:03.4284	6,3238188E+003	2,8248411E-001	2,2352154E-003
02/09/2025 17:35:05.0561	3,1669595E+003	2,8369579E-001	2,7154244E-003
02/09/2025 17:35:06.4571	1,5884750E+003	2,8504959E-001	3,0709589E-003
02/09/2025 17:35:07.8569	7,9525409E+002	2,8641626E-001	3,6446054E-003
02/09/2025 17:35:09.2576	3,9859698E+002	2,8795549E-001	4,0667676E-003
02/09/2025 17:35:10.6561	1,9980818E+002	2,8978214E-001	4,4359923E-003
02/09/2025 17:35:12.0576	1,0016024E+002	2,9181388E-001	5,0481819E-003
02/09/2025 17:35:13.4731	5,0208866E+001	2,9408625E-001	5,8512636E-003
02/09/2025 17:35:14.8518	2,5136747E+001	2,9661262E-001	6,8748575E-003
02/09/2025 17:35:16.3110	1,2600809E+001	2,9975483E-001	8,1667453E-003
02/09/2025 17:35:17.7313	6,3105812E+000	3,0328003E-001	9,9004311E-003
02/09/2025 17:35:19.4819	3,1655185E+000	3,0716658E-001	1,2312233E-002
02/09/2025 17:35:22.8193	1,5846856E+000	3,1204489E-001	1,5502253E-002
02/09/2025 17:35:30.1902	7,9443753E-001	3,1703201E-001	2,1620916E-002
02/09/2025 17:35:43.0929	3,9867833E-001	3,2432440E-001	3,2042030E-002
02/09/2025 17:36:08.7273	1,9980818E-001	3,3794767E-001	4,9996398E-002
02/09/2025 17:36:59.7690	1,0013975E-001	3,5978180E-001	7,3299766E-002
02/09/2025 17:38:41.5419	5,0154075E-002	3,9087719E-001	1,0474366E-001
02/09/2025 17:42:04.5573	2,5144994E-002	4,3826154E-001	1,4922956E-001
02/09/2025 17:48:49.6435	1,2576789E-002	5,1088369E-001	2,0415875E-001
02/09/2025 17:52:20.9327	1,5885727E+005	2,6670897E-001	-1,1238014E-002
02/09/2025 17:52:23.4947	7,9609563E+004	2,7799258E-001	-2,5825619E-003
02/09/2025 17:52:27.0367	3,9897566E+004	2,7997673E-001	-7,8692060E-004
02/09/2025 17:52:28.3387	1,9995176E+004	2,8077948E-001	7,3377276E-004
02/09/2025 17:52:29.6417	1,0020785E+004	2,8156537E-001	1,7236915E-003
02/09/2025 17:52:31.1839	5,0216069E+003	2,8262949E-001	2,3957063E-003
02/09/2025 17:52:32.8079	2,5158047E+003	2,8370190E-001	2,7475080E-003
02/09/2025 17:52:34.2089	1,2604036E+003	2,8516859E-001	3,1587381E-003
02/09/2025 17:52:35.6104	6,3181964E+002	2,8668305E-001	3,4546389E-003
02/09/2025 17:52:37.0099	3,1672299E+002	2,8819618E-001	4,0429127E-003
02/09/2025 17:52:38.4127	1,5862943E+002	2,9011565E-001	4,5767794E-003
02/09/2025 17:52:39.8152	7,9516548E+001	2,9231659E-001	5,1847668E-003
02/09/2025 17:52:41.2276	3,9859695E+001	2,9462174E-001	6,1222506E-003
02/09/2025 17:52:42.6072	1,9980818E+001	2,9738280E-001	7,1966564E-003
02/09/2025 17:52:44.0637	1,0016025E+001	3,0056712E-001	8,7477677E-003
02/09/2025 17:52:45.4884	5,0144420E+000	3,0428457E-001	1,0773875E-002
02/09/2025 17:52:47.6479	2,5136747E+000	3,0861455E-001	1,3383218E-002
02/09/2025 17:52:52.6592	1,2596742E+000	3,1336224E-001	1,7483849E-002
02/09/2025 17:53:00.8461	6,3126212E-001	3,1956419E-001	2,4990328E-002
02/09/2025 17:53:17.0632	3,1619310E-001	3,2832521E-001	3,7130192E-002
02/09/2025 17:53:49.3099	1,5846856E-001	3,4345701E-001	5,6348532E-002
02/09/2025 17:54:53.5510	7,9421178E-002	3,6820418E-001	8,3790578E-002
02/09/2025 17:57:01.6646	3,9804459E-002	4,0583158E-001	1,1793131E-001