File: data/phase_2a/Sergey/3/8.3/01 eis/C7D1_mr 0,1MFeCN6_in_1M_KCl_3306mL_symmetric_balanced_4_point_PEIS_10mV_C16.txt
time/s	freq/Hz	Re(Z)/Ohm	-Im(Z)/Ohm
03/09/2025 08:17:44.2055	1,9999814E+005	2,5950956E-001	-1,8377338E-002
03/09/2025 08:17:45.0745	1,2618765E+005	2,7896744E-001	-7,2305365E-003
03/09/2025 08:17:47.0625	7,9609563E+004	2,8389770E-001	-2,5095693E-003
03/09/2025 08:17:50.0305	5,0224539E+004	2,8539839E-001	-1,3235749E-003
03/09/2025 08:17:51.1785	3,1686090E+004	2,8617287E-001	-1,5478586E-004
03/09/2025 08:17:52.0465	1,9995176E+004	2,8659293E-001	5,9229444E-004
03/09/2025 08:17:52.9145	1,2618766E+004	2,8705505E-001	1,2652106E-003
03/09/2025 08:17:53.8398	7,9597607E+003	2,8767160E-001	1,7695477E-003
03/09/2025 08:17:54.8907	5,0216069E+003	2,8825927E-001	2,2355416E-003
03/09/2025 08:17:56.0490	3,1669595E+003	2,8915831E-001	2,6024529E-003
03/09/2025 08:17:56.9829	1,9980818E+003	2,8986752E-001	2,8162093E-003
03/09/2025 08:17:57.9157	1,2604036E+003	2,9077521E-001	2,9459232E-003
03/09/2025 08:17:58.8507	7,9525409E+002	2,9155317E-001	3,4681540E-003
03/09/2025 08:17:59.7839	5,0208865E+002	2,9254079E-001	3,6861929E-003
03/09/2025 08:18:00.7167	3,1672299E+002	2,9373264E-001	4,0348088E-003
03/09/2025 08:18:01.6499	1,9980818E+002	2,9469332E-001	4,2888722E-003
03/09/2025 08:18:02.5841	1,2600809E+002	2,9614606E-001	4,6770251E-003
03/09/2025 08:18:03.5220	7,9516548E+001	2,9749668E-001	5,2819969E-003
03/09/2025 08:18:04.4669	5,0208866E+001	2,9892397E-001	5,7635098E-003
03/09/2025 08:18:05.3802	3,1672298E+001	3,0059439E-001	6,4634364E-003
03/09/2025 08:18:06.3139	1,9980818E+001	3,0258602E-001	7,3275534E-003
03/09/2025 08:18:07.3048	1,2600809E+001	3,0468902E-001	7,9742111E-003
03/09/2025 08:18:08.3452	7,9557004E+000	3,0716977E-001	8,9733647E-003
03/09/2025 08:18:09.1942	5,0144420E+000	3,0963328E-001	9,9133132E-003
03/09/2025 08:18:10.4758	3,1655185E+000	3,1204057E-001	1,1167357E-002
03/09/2025 08:18:12.4467	1,9970603E+000	3,1466070E-001	1,3032808E-002
03/09/2025 08:18:16.3649	1,2596742E+000	3,1719306E-001	1,6604085E-002
03/09/2025 08:18:21.1862	7,9443753E-001	3,2019585E-001	2,0854980E-002
03/09/2025 08:18:28.7824	5,0118679E-001	3,2511714E-001	2,7981643E-002
03/09/2025 08:18:40.7707	3,1619310E-001	3,3133161E-001	3,7235584E-002
03/09/2025 08:18:59.7234	1,9980818E-001	3,4201011E-001	4,9595296E-002
03/09/2025 08:19:29.7433	1,2590654E-001	3,5492572E-001	6,4094558E-002
03/09/2025 08:20:17.2593	7,9421178E-002	3,7508488E-001	8,1536271E-002
03/09/2025 08:21:32.5378	5,0154075E-002	3,9900881E-001	1,0246543E-001
03/09/2025 08:23:31.9328	3,1592205E-002	4,3394864E-001	1,2386277E-001
03/09/2025 08:26:40.9402	1,9949391E-002	4,8379666E-001	1,4759500E-001
03/09/2025 08:31:40.6394	1,2576789E-002	5,5355978E-001	1,4858171E-001
03/09/2025 08:35:11.4965	1,9999814E+005	2,5918788E-001	-8,8259261E-003
03/09/2025 08:35:12.3645	1,2618765E+005	2,7817237E-001	-1,9744644E-003
03/09/2025 08:35:14.4925	7,9609563E+004	2,8402230E-001	-1,8124215E-003
03/09/2025 08:35:17.7405	5,0224539E+004	2,8537157E-001	-4,9049407E-004
03/09/2025 08:35:18.8895	3,1686090E+004	2,8609788E-001	8,7719411E-005
03/09/2025 08:35:19.7575	1,9995176E+004	2,8665140E-001	7,7425997E-004
03/09/2025 08:35:20.6255	1,2618766E+004	2,8701076E-001	1,1793089E-003
03/09/2025 08:35:21.5508	7,9597607E+003	2,8766790E-001	1,9720148E-003
03/09/2025 08:35:22.6047	5,0216069E+003	2,8830400E-001	2,2225184E-003
03/09/2025 08:35:23.7640	3,1669595E+003	2,8905356E-001	2,4573531E-003
03/09/2025 08:35:24.6980	1,9980818E+003	2,8988007E-001	2,6763699E-003
03/09/2025 08:35:25.6308	1,2604036E+003	2,9074419E-001	3,0104418E-003
03/09/2025 08:35:26.5647	7,9525409E+002	2,9173523E-001	3,3132690E-003
03/09/2025 08:35:27.4970	5,0208865E+002	2,9267260E-001	3,6965883E-003
03/09/2025 08:35:28.4297	3,1672299E+002	2,9364169E-001	4,0526772E-003
03/09/2025 08:35:29.3630	1,9980818E+002	2,9493809E-001	4,1897567E-003
03/09/2025 08:35:30.2972	1,2600809E+002	2,9616144E-001	4,7052721E-003
03/09/2025 08:35:31.2350	7,9516548E+001	2,9746217E-001	5,2433596E-003
03/09/2025 08:35:32.1800	5,0208866E+001	2,9902983E-001	5,8316835E-003
03/09/2025 08:35:33.0933	3,1672298E+001	3,0066347E-001	6,6093118E-003
03/09/2025 08:35:34.0270	1,9980818E+001	3,0250636E-001	7,2922995E-003
03/09/2025 08:35:35.0179	1,2600809E+001	3,0466902E-001	7,9372618E-003
03/09/2025 08:35:36.0582	7,9557004E+000	3,0715203E-001	8,9304950E-003
03/09/2025 08:35:36.9072	5,0144420E+000	3,0957028E-001	9,9341348E-003
03/09/2025 08:35:38.1888	3,1655185E+000	3,1221029E-001	1,1040398E-002
03/09/2025 08:35:40.1597	1,9970603E+000	3,1463560E-001	1,2687401E-002
03/09/2025 08:35:44.0770	1,2596742E+000	3,1634420E-001	1,5415953E-002
03/09/2025 08:35:48.8973	7,9443753E-001	3,1992060E-001	2,0748375E-002
03/09/2025 08:35:56.4919	5,0118679E-001	3,2506809E-001	2,7895402E-002
03/09/2025 08:36:08.4800	3,1619310E-001	3,3130085E-001	3,7514273E-002
03/09/2025 08:36:27.4328	1,9980818E-001	3,4195045E-001	4,9345955E-002
03/09/2025 08:36:57.4516	1,2590654E-001	3,5489804E-001	6,4446010E-002
03/09/2025 08:37:44.9665	7,9421178E-002	3,7480646E-001	8,1120647E-002
03/09/2025 08:39:00.2459	5,0154075E-002	3,9941546E-001	1,0268135E-001
03/09/2025 08:40:59.6400	3,1592205E-002	4,3350402E-001	1,2365550E-001
03/09/2025 08:44:08.6474	1,9949391E-002	4,8418629E-001	1,4784136E-001
03/09/2025 08:49:08.3466	1,2576789E-002	5,5284929E-001	1,4857140E-001
03/09/2025 08:52:39.2036	1,9999814E+005	2,6261058E-001	-6,4687831E-003
03/09/2025 08:52:40.0716	1,2618765E+005	2,7842349E-001	-1,6921475E-003
03/09/2025 08:52:42.1996	7,9609563E+004	2,8387684E-001	-1,6515236E-003
03/09/2025 08:52:45.4476	5,0224539E+004	2,8503731E-001	-7,0196280E-004
03/09/2025 08:52:46.5956	3,1686090E+004	2,8615192E-001	2,8097557E-004
03/09/2025 08:52:47.4636	1,9995176E+004	2,8640434E-001	8,3278480E-004
03/09/2025 08:52:48.3316	1,2618766E+004	2,8696635E-001	1,4765442E-003
03/09/2025 08:52:49.2569	7,9597607E+003	2,8758723E-001	1,9392682E-003
03/09/2025 08:52:50.3078	5,0216069E+003	2,8817138E-001	2,2884021E-003
03/09/2025 08:52:51.4660	3,1669595E+003	2,8900602E-001	2,5049101E-003
03/09/2025 08:52:52.4010	1,9980818E+003	2,8973895E-001	2,8659890E-003
03/09/2025 08:52:53.3358	1,2604036E+003	2,9055929E-001	3,1805171E-003
03/09/2025 08:52:54.2698	7,9525409E+002	2,9136047E-001	3,3767729E-003
03/09/2025 08:52:55.2020	5,0208865E+002	2,9248998E-001	3,7365286E-003
03/09/2025 08:52:56.1348	3,1672299E+002	2,9362306E-001	3,7844013E-003
03/09/2025 08:52:57.0680	1,9980818E+002	2,9464445E-001	4,4024982E-003
03/09/2025 08:52:58.0023	1,2600809E+002	2,9585382E-001	4,7701835E-003
03/09/2025 08:52:58.9401	7,9516548E+001	2,9739410E-001	5,3378893E-003
03/09/2025 08:52:59.8850	5,0208866E+001	2,9900274E-001	5,8001396E-003
03/09/2025 08:53:00.7983	3,1672298E+001	3,0047917E-001	6,4826268E-003
03/09/2025 08:53:01.7320	1,9980818E+001	3,0238014E-001	7,0684240E-003
03/09/2025 08:53:02.7230	1,2600809E+001	3,0441275E-001	8,0843512E-003
03/09/2025 08:53:03.7633	7,9557004E+000	3,0684519E-001	8,8781388E-003
03/09/2025 08:53:04.6123	5,0144420E+000	3,0937091E-001	1,0007187E-002
03/09/2025 08:53:05.8938	3,1655185E+000	3,1192076E-001	1,0898761E-002
03/09/2025 08:53:07.8648	1,9970603E+000	3,1438047E-001	1,2994378E-002
03/09/2025 08:53:11.7831	1,2596742E+000	3,1606486E-001	1,5954725E-002
03/09/2025 08:53:16.6032	7,9443753E-001	3,2009485E-001	2,0878511E-002
03/09/2025 08:53:24.1983	5,0118679E-001	3,2447052E-001	2,7725687E-002
03/09/2025 08:53:36.1871	3,1619310E-001	3,3185473E-001	3,7645321E-002
03/09/2025 08:53:55.1408	1,9980818E-001	3,4090519E-001	4,9274813E-002
03/09/2025 08:54:25.1597	1,2590654E-001	3,5577753E-001	6,4224184E-002
03/09/2025 08:55:12.6757	7,9421178E-002	3,7341079E-001	8,1805110E-002
03/09/2025 08:56:27.9541	5,0154075E-002	4,0012833E-001	1,0134001E-001
03/09/2025 08:58:27.3493	3,1592205E-002	4,3292949E-001	1,2519445E-001
03/09/2025 09:01:36.3576	1,9949391E-002	4,8402128E-001	1,4660434E-001
03/09/2025 09:06:36.0569	1,2576789E-002	5,5216008E-001	1,4930940E-001
03/09/2025 09:10:06.9136	1,9999814E+005	2,5951338E-001	-9,5016640E-003
03/09/2025 09:10:07.7816	1,2618765E+005	2,7726147E-001	-2,4405587E-003
03/09/2025 09:10:09.9106	7,9609563E+004	2,8371224E-001	-1,8354225E-003
03/09/2025 09:10:13.1586	5,0224539E+004	2,8496706E-001	-8,4440847E-004
03/09/2025 09:10:14.3066	3,1686090E+004	2,8591499E-001	1,2902395E-004
03/09/2025 09:10:15.1756	1,9995176E+004	2,8625399E-001	7,5531384E-004
03/09/2025 09:10:16.0446	1,2618766E+004	2,8658363E-001	1,4750448E-003
03/09/2025 09:10:16.9699	7,9597607E+003	2,8732973E-001	1,8383927E-003
03/09/2025 09:10:18.0208	5,0216069E+003	2,8790307E-001	2,3462835E-003
03/09/2025 09:10:19.1791	3,1669595E+003	2,8872767E-001	2,6529122E-003
03/09/2025 09:10:20.1121	1,9980818E+003	2,8961095E-001	2,7787834E-003
03/09/2025 09:10:21.0449	1,2604036E+003	2,9034758E-001	3,1378393E-003
03/09/2025 09:10:21.9788	7,9525409E+002	2,9118550E-001	3,1700656E-003
03/09/2025 09:10:22.9121	5,0208865E+002	2,9227015E-001	3,5273493E-003
03/09/2025 09:10:23.8448	3,1672299E+002	2,9332107E-001	4,1083717E-003
03/09/2025 09:10:24.7781	1,9980818E+002	2,9441273E-001	4,2142998E-003
03/09/2025 09:10:25.7123	1,2600809E+002	2,9574737E-001	4,7179656E-003
03/09/2025 09:10:26.6501	7,9516548E+001	2,9713938E-001	5,1895785E-003
03/09/2025 09:10:27.5951	5,0208866E+001	2,9858485E-001	5,7113855E-003
03/09/2025 09:10:28.5083	3,1672298E+001	3,0036190E-001	6,4404598E-003
03/09/2025 09:10:28.9738	2,5136747E+001	3,0124307E-001	6,9466284E-003