File: data/phase_2a/Sergey/2/8.3/02 polarisation/SN50_C6aD1E1_mr 0,1MFeCN6_in_1M_KCl_3306mL_symmetric_balanced_4_point_PEIS_10mHz_200kHz_10mV_02_CP_C16.txt
time/s	I/mA	<Ewe/V>
30/08/2025 21:41:01.6380	8,6140092E-003	-5,5767708E-003
30/08/2025 21:41:13.1380	4,1594426E-003	-5,5737789E-003
30/08/2025 21:41:24.6380	9,7761012E-004	-5,5773691E-003
30/08/2025 21:41:36.1380	1,1159477E-002	-5,5774841E-003
30/08/2025 21:41:47.6380	3,5230771E-003	-5,5774455E-003
30/08/2025 21:41:59.1380	1,6886778E-002	-5,5769491E-003
30/08/2025 21:42:10.6380	4,7958097E-003	-5,5740844E-003
30/08/2025 21:42:22.1380	7,9776440E-003	-5,5754213E-003
30/08/2025 21:42:33.6380	1,6139771E-003	-5,5761090E-003
30/08/2025 21:42:45.1380	7,9776440E-003	-5,5773691E-003
30/08/2025 21:42:56.6380	5,4321769E-003	-5,5777896E-003
30/08/2025 21:43:08.1380	6,7049102E-003	-5,5760322E-003
30/08/2025 21:43:19.6380	9,7761012E-004	-5,5756886E-003
30/08/2025 21:43:31.1380	6,0685435E-003	-5,5720215E-003
30/08/2025 21:43:42.6380	5,4321769E-003	-5,5806930E-003
30/08/2025 21:43:54.1380	8,6140092E-003	-5,5754976E-003
30/08/2025 21:44:05.6380	3,5230771E-003	-5,5758795E-003
30/08/2025 21:44:17.1380	6,7049102E-003	-5,5785920E-003
30/08/2025 21:44:28.6380	8,6140092E-003	-5,5771787E-003
30/08/2025 21:44:40.1380	5,4321769E-003	-5,5775987E-003
30/08/2025 21:44:51.6380	6,0685435E-003	-5,5818385E-003
30/08/2025 21:45:03.1380	9,2503773E-003	-5,5835578E-003
30/08/2025 21:45:14.6380	7,3412773E-003	-5,5803107E-003
30/08/2025 21:45:26.1380	7,3412773E-003	-5,5787065E-003
30/08/2025 21:45:37.6380	8,6140092E-003	-5,5827936E-003
30/08/2025 21:45:49.1380	1,0523110E-002	-5,5765291E-003
30/08/2025 21:46:00.6380	6,7049102E-003	-5,5802343E-003
30/08/2025 21:46:12.1380	1,1159477E-002	-5,5752303E-003
30/08/2025 21:46:23.6380	5,4321769E-003	-5,5771787E-003
30/08/2025 21:46:35.1380	4,1594426E-003	-5,5812658E-003
30/08/2025 21:46:46.6380	4,1594426E-003	-5,5735875E-003
30/08/2025 21:46:58.1380	1,0523110E-002	-5,5725179E-003
30/08/2025 21:47:09.6380	7,9776440E-003	-5,5789738E-003
30/08/2025 21:47:21.1380	4,7958097E-003	-5,5788592E-003
30/08/2025 21:47:32.6380	7,3412773E-003	-5,5740080E-003
30/08/2025 21:47:44.1380	9,8867435E-003	-5,5782478E-003
30/08/2025 21:47:55.6380	9,8867435E-003	-5,5820299E-003
30/08/2025 21:48:07.1380	4,1594426E-003	-5,5788206E-003
30/08/2025 21:48:18.6380	5,4321769E-003	-5,5822972E-003
30/08/2025 21:48:30.1380	9,2503773E-003	-5,5869957E-003
30/08/2025 21:48:41.6380	1,0523110E-002	-5,5813040E-003
30/08/2025 21:48:53.1380	6,0685435E-003	-5,5844365E-003
30/08/2025 21:49:04.6380	1,1159477E-002	-5,5826027E-003
30/08/2025 21:49:16.1380	1,1795843E-002	-5,5840164E-003
30/08/2025 21:49:27.6380	4,1594426E-003	-5,5820681E-003
30/08/2025 21:49:39.1380	1,2432210E-002	-5,5773691E-003
30/08/2025 21:49:50.6380	9,2503773E-003	-5,5814185E-003
30/08/2025 21:50:02.1380	7,3412773E-003	-5,5774073E-003
30/08/2025 21:50:13.6380	8,6140092E-003	-5,5756886E-003
30/08/2025 21:50:25.1380	3,5230771E-003	-5,5852765E-003
30/08/2025 21:50:36.6380	6,7049102E-003	-5,5847033E-003
30/08/2025 21:50:48.1380	2,8867100E-003	-5,5822586E-003
30/08/2025 21:50:59.6380	2,8867100E-003	-5,5845510E-003
30/08/2025 21:51:11.0906	2,6505650E+001	9,7447727E-003
30/08/2025 21:51:22.5906	2,6505650E+001	1,1875472E-002
30/08/2025 21:51:34.0906	2,6502468E+001	1,2855408E-002
30/08/2025 21:51:45.5906	2,6508831E+001	1,3383517E-002
30/08/2025 21:51:57.0906	2,6508831E+001	1,3649502E-002
30/08/2025 21:52:08.5906	2,6508831E+001	1,3849401E-002
30/08/2025 21:52:20.0906	2,6511377E+001	1,3933516E-002
30/08/2025 21:52:31.5906	2,6503742E+001	1,4077490E-002
30/08/2025 21:52:43.0906	2,6501831E+001	1,4115270E-002
30/08/2025 21:52:54.5906	2,6511377E+001	1,4231090E-002
30/08/2025 21:53:05.9908	5,4321769E-003	9,3708228E-004
30/08/2025 21:53:17.4908	4,1594426E-003	-2,3305912E-003
30/08/2025 21:53:28.9908	-2,9512335E-004	-3,5815528E-003
30/08/2025 21:53:40.4908	7,3412773E-003	-4,1637155E-003
30/08/2025 21:53:51.9908	7,9776440E-003	-4,4541094E-003
30/08/2025 21:54:03.4908	5,4321769E-003	-4,5744763E-003
30/08/2025 21:54:14.9908	6,0685435E-003	-4,6076337E-003
30/08/2025 21:54:26.4908	1,0523110E-002	-4,6097343E-003
30/08/2025 21:54:37.9908	4,7958097E-003	-4,6048062E-003
30/08/2025 21:54:49.4908	4,7958097E-003	-4,5912075E-003
30/08/2025 21:55:00.9908	7,3412773E-003	-4,5824600E-003
30/08/2025 21:55:12.3910	-2,6488420E+001	-2,0224180E-002
30/08/2025 21:55:23.8910	-2,6484600E+001	-2,2178434E-002
30/08/2025 21:55:35.3910	-2,6488420E+001	-2,3062222E-002
30/08/2025 21:55:46.8910	-2,6493511E+001	-2,3601638E-002
30/08/2025 21:55:58.3910	-2,6477600E+001	-2,3832137E-002
30/08/2025 21:56:09.8910	-2,6488420E+001	-2,4043417E-002
30/08/2025 21:56:21.3910	-2,6488420E+001	-2,4117067E-002
30/08/2025 21:56:32.8910	-2,6489056E+001	-2,4252448E-002
30/08/2025 21:56:44.3910	-2,6482054E+001	-2,4299433E-002
30/08/2025 21:56:55.8910	-2,6482693E+001	-2,4401540E-002
30/08/2025 21:57:07.2912	5,3015415E+001	1,7491011E-002
30/08/2025 21:57:18.7912	5,3016685E+001	2,6339345E-002
30/08/2025 21:57:30.2912	5,3010960E+001	2,9817920E-002
30/08/2025 21:57:41.7912	5,3010960E+001	3,1677745E-002
30/08/2025 21:57:53.2912	5,3009686E+001	3,2670517E-002
30/08/2025 21:58:04.7912	5,3010960E+001	3,3198547E-002
30/08/2025 21:58:16.2912	5,3009686E+001	3,3525884E-002
30/08/2025 21:58:27.7912	5,3011597E+001	3,3674248E-002
30/08/2025 21:58:39.2912	5,3012230E+001	3,3936411E-002
30/08/2025 21:58:50.7912	5,3017323E+001	3,4003299E-002
30/08/2025 21:59:02.1916	5,4321769E-003	1,3410295E-002
30/08/2025 21:59:13.6916	1,3068578E-002	2,3802645E-003
30/08/2025 21:59:25.1916	6,7049102E-003	-9,6774264E-004
30/08/2025 21:59:36.6916	1,0523110E-002	-2,4515693E-003
30/08/2025 21:59:48.1916	2,2503431E-003	-3,2029944E-003
30/08/2025 21:59:59.6916	1,6139771E-003	-3,5345673E-003
30/08/2025 22:00:11.1916	6,7049102E-003	-3,6442003E-003
30/08/2025 22:00:22.6916	2,2503431E-003	-3,6645990E-003
30/08/2025 22:00:34.1916	6,7049102E-003	-3,6508851E-003
30/08/2025 22:00:45.6916	9,8867435E-003	-3,6232669E-003
30/08/2025 22:00:57.1916	9,2503773E-003	-3,5983990E-003
30/08/2025 22:01:08.5918	-5,2974636E+001	-3,2567400E-002
30/08/2025 22:01:20.0918	-5,2975266E+001	-3,7921920E-002
30/08/2025 22:01:31.5918	-5,2980358E+001	-4,0189754E-002
30/08/2025 22:01:43.0918	-5,2980358E+001	-4,1412868E-002
30/08/2025 22:01:54.5918	-5,2977180E+001	-4,2156119E-002
30/08/2025 22:02:06.0918	-5,2972088E+001	-4,2498197E-002
30/08/2025 22:02:17.5918	-5,2971451E+001	-4,2837869E-002
30/08/2025 22:02:29.0918	-5,2982906E+001	-4,2944904E-002
30/08/2025 22:02:40.5918	-5,2979088E+001	-4,3211080E-002
30/08/2025 22:02:52.0918	-5,2981636E+001	-4,3317042E-002
30/08/2025 22:03:03.4920	7,9513718E+001	1,5659070E-002
30/08/2025 22:03:14.9920	7,9506721E+001	3,7827428E-002
30/08/2025 22:03:26.4920	7,9509262E+001	4,5784108E-002
30/08/2025 22:03:37.9920	7,9507996E+001	4,9381252E-002
30/08/2025 22:03:49.4920	7,9507347E+001	5,1550876E-002
30/08/2025 22:04:00.9920	7,9503532E+001	5,2540552E-002
30/08/2025 22:04:12.4919	7,9501625E+001	5,3143036E-002
30/08/2025 22:04:23.9919	7,9511810E+001	5,3513270E-002
30/08/2025 22:04:35.4919	7,9512444E+001	5,3775892E-002
30/08/2025 22:04:46.9919	7,9506721E+001	5,4086071E-002
30/08/2025 22:04:58.4919	7,9502899E+001	5,4217823E-002
30/08/2025 22:05:09.8923	4,7958097E-003	9,3749622E-003
30/08/2025 22:05:21.3923	1,3704944E-002	2,5690473E-003
30/08/2025 22:05:32.8923	7,3412773E-003	-3,1250427E-004
30/08/2025 22:05:44.3923	1,1159477E-002	-1,7252797E-003
30/08/2025 22:05:55.8923	2,2503431E-003	-2,3952250E-003
30/08/2025 22:06:07.3923	8,6140092E-003	-2,6504749E-003
30/08/2025 22:06:18.8923	1,1159477E-002	-2,7067813E-003
30/08/2025 22:06:30.3923	3,5230771E-003	-2,6951304E-003
30/08/2025 22:06:41.8923	9,2503773E-003	-2,6578475E-003
30/08/2025 22:06:53.3923	3,4124311E-004	-2,6208321E-003
30/08/2025 22:07:04.7925	-7,9474213E+001	-4,0712669E-002
30/08/2025 22:07:16.2925	-7,9473579E+001	-5,2225355E-002
30/08/2025 22:07:27.7925	-7,9476120E+001	-5,6857936E-002
30/08/2025 22:07:39.2925	-7,9479301E+001	-5,9076078E-002
30/08/2025 22:07:50.7925	-7,9476120E+001	-6,0451761E-002
30/08/2025 22:08:02.2925	-7,9472939E+001	-6,1155550E-002
30/08/2025 22:08:13.7925	-7,9472939E+001	-6,1555922E-002
30/08/2025 22:08:25.2925	-7,9476120E+001	-6,1984520E-002
30/08/2025 22:08:36.7925	-7,9482483E+001	-6,2153898E-002
30/08/2025 22:08:48.2925	-7,9476120E+001	-6,2577344E-002
30/08/2025 22:08:59.7925	-7,9472305E+001	-6,2684916E-002
30/08/2025 22:09:11.1927	1,0601266E+002	4,5180205E-002
30/08/2025 22:09:22.6927	1,0600885E+002	5,9755202E-002
30/08/2025 22:09:34.1927	1,0601331E+002	6,6475518E-002
30/08/2025 22:09:45.6927	1,0601904E+002	6,9840409E-002
30/08/2025 22:09:57.1927	1,0601522E+002	7,1992882E-002
30/08/2025 22:10:08.6927	1,0601331E+002	7,2849579E-002
30/08/2025 22:10:20.1927	1,0601012E+002	7,3600017E-002
30/08/2025 22:10:31.6927	1,0601394E+002	7,3921345E-002
30/08/2025 22:10:43.1927	1,0601522E+002	7,4294366E-002
30/08/2025 22:10:54.6927	1,0601394E+002	7,4688703E-002
30/08/2025 22:11:06.0931	7,9776440E-003	2,0554584E-002
30/08/2025 22:11:17.5931	6,7049102E-003	7,4529471E-003
30/08/2025 22:11:29.0931	1,6250411E-002	2,4565875E-003
30/08/2025 22:11:40.5931	2,2503431E-003	7,8736426E-005
30/08/2025 22:11:52.0931	1,4977678E-002	-1,0993404E-003
30/08/2025 22:12:03.5931	1,6250411E-002	-1,5931472E-003
30/08/2025 22:12:15.0931	8,6140092E-003	-1,7433863E-003
30/08/2025 22:12:26.5931	8,6140092E-003	-1,7541586E-003
30/08/2025 22:12:38.0931	1,1795843E-002	-1,7097325E-003
30/08/2025 22:12:49.5931	2,2503431E-003	-1,6566350E-003
30/08/2025 22:13:01.0931	5,4321769E-003	-1,6093056E-003
30/08/2025 22:13:12.4933	-1,0597825E+002	-6,4612351E-002
30/08/2025 22:13:23.9933	-1,0597124E+002	-7,2543435E-002
30/08/2025 22:13:35.4933	-1,0596997E+002	-7,6604053E-002
30/08/2025 22:13:46.9933	-1,0598079E+002	-7,8554340E-002
30/08/2025 22:13:58.4933	-1,0597314E+002	-7,9942249E-002
30/08/2025 22:14:09.9933	-1,0597697E+002	-8,0568030E-002
30/08/2025 22:14:21.4933	-1,0598398E+002	-8,1150427E-002
30/08/2025 22:14:32.9933	-1,0597189E+002	-8,1540518E-002
30/08/2025 22:14:44.4933	-1,0597888E+002	-8,1842646E-002
30/08/2025 22:14:55.9933	-1,0598079E+002	-8,2358681E-002
30/08/2025 22:15:01.5935	-1,0597189E+002	-8,2350038E-002