File: data/phase_2a/Sergey/2/8.3/02 polarisation/SN50_C6aD1E1_mr 0,1MFeCN6_in_1M_KCl_3306mL_symmetric_balanced_4_point_PEIS_10mHz_200kHz_10mV_03_CP_C16.txt
time/s	I/mA	<Ewe/V>
30/08/2025 22:15:01.6957	1,1159762E-001	-4,4125073E-002
30/08/2025 22:15:18.4957	1,3068911E-001	-1,4188332E-002
30/08/2025 22:15:35.2957	7,9778478E-002	-8,3628492E-003
30/08/2025 22:15:52.0957	7,9778478E-002	-6,3618370E-003
30/08/2025 22:16:08.8957	5,4323155E-002	-5,7995766E-003
30/08/2025 22:16:25.6957	7,3414646E-002	-5,7403673E-003
30/08/2025 22:16:42.4957	9,2506140E-002	-5,7928534E-003
30/08/2025 22:16:59.2957	1,3068911E-001	-5,8465237E-003
30/08/2025 22:17:16.0955	1,3260652E+002	7,6489128E-002
30/08/2025 22:17:32.8955	1,3255562E+002	8,6671740E-002
30/08/2025 22:17:49.6955	1,3260016E+002	9,0863265E-002
30/08/2025 22:18:06.4955	1,3255562E+002	9,2628896E-002
30/08/2025 22:18:23.2955	1,3259380E+002	9,3578726E-002
30/08/2025 22:18:40.0955	1,3256834E+002	9,4498307E-002
30/08/2025 22:18:56.8955	1,3261925E+002	9,5296182E-002
30/08/2025 22:19:13.5957	2,2504006E-002	1,4410323E-002
30/08/2025 22:19:30.3957	5,4323155E-002	3,7657656E-003
30/08/2025 22:19:47.1957	6,0686987E-002	2,0166286E-004
30/08/2025 22:20:03.9957	1,4341676E-001	-9,4764959E-004
30/08/2025 22:20:20.7957	4,1595493E-002	-1,1355919E-003
30/08/2025 22:20:37.5957	9,8869957E-002	-1,0965136E-003
30/08/2025 22:20:54.3957	8,6142294E-002	-9,9887536E-004
30/08/2025 22:21:11.0959	-1,3241513E+002	-7,6894760E-002
30/08/2025 22:21:27.8959	-1,3244060E+002	-9,1619492E-002
30/08/2025 22:21:44.6959	-1,3238332E+002	-9,7008161E-002
30/08/2025 22:22:01.4959	-1,3242149E+002	-9,9275887E-002
30/08/2025 22:22:18.2959	-1,3237061E+002	-1,0043357E-001
30/08/2025 22:22:35.0959	-1,3237695E+002	-1,0149399E-001
30/08/2025 22:22:51.8959	-1,3234514E+002	-1,0222013E-001
30/08/2025 22:23:08.5961	1,5909277E+002	5,8594968E-002
30/08/2025 22:23:25.3961	1,5911823E+002	9,4571806E-002
30/08/2025 22:23:42.1961	1,5904185E+002	1,0675649E-001
30/08/2025 22:23:58.9961	1,5904825E+002	1,1225969E-001
30/08/2025 22:24:15.7961	1,5906096E+002	1,1451588E-001
30/08/2025 22:24:32.5961	1,5903551E+002	1,1554688E-001
30/08/2025 22:24:49.3961	1,5904185E+002	1,1637153E-001
30/08/2025 22:25:06.0965	6,7050815E-002	3,3982329E-002
30/08/2025 22:25:22.8965	7,9778478E-002	9,6747912E-003
30/08/2025 22:25:39.6965	1,6887209E-001	2,8768980E-003
30/08/2025 22:25:56.4965	1,0523378E-001	4,0713872E-004
30/08/2025 22:26:13.2965	6,7050815E-002	-1,9981533E-004
30/08/2025 22:26:30.0965	9,2506140E-002	-2,3430960E-004
30/08/2025 22:26:46.8965	6,7050815E-002	-1,2028369E-004
30/08/2025 22:27:03.5967	-1,5888866E+002	-6,9260865E-002
30/08/2025 22:27:20.3967	-1,5890776E+002	-1,0355799E-001
30/08/2025 22:27:37.1967	-1,5892683E+002	-1,1361332E-001
30/08/2025 22:27:53.9967	-1,5890776E+002	-1,1830309E-001
30/08/2025 22:28:10.7967	-1,5887593E+002	-1,2029015E-001
30/08/2025 22:28:27.5967	-1,5893321E+002	-1,2132434E-001
30/08/2025 22:28:44.3967	-1,5884413E+002	-1,2221152E-001
30/08/2025 22:29:01.1967	-1,5892049E+002	-1,2339292E-001
30/08/2025 22:29:17.8969	1,8568088E+002	9,8656110E-002
30/08/2025 22:29:34.6969	1,8562994E+002	1,2140976E-001
30/08/2025 22:29:51.4969	1,8566812E+002	1,3092473E-001
30/08/2025 22:30:08.2969	1,8561722E+002	1,3519536E-001
30/08/2025 22:30:25.0969	1,8555995E+002	1,3741885E-001
30/08/2025 22:30:41.8969	1,8565540E+002	1,3850953E-001
30/08/2025 22:30:58.6969	1,8561722E+002	1,3939056E-001
30/08/2025 22:31:15.3973	1,3068911E-001	2,0266023E-002
30/08/2025 22:31:32.1973	7,9778478E-002	7,0062792E-003
30/08/2025 22:31:48.9973	1,1159762E-001	2,3793478E-003
30/08/2025 22:32:05.7973	6,7050815E-002	9,0266444E-004
30/08/2025 22:32:22.5973	1,3705294E-001	6,5830135E-004
30/08/2025 22:32:39.3973	1,3068911E-001	7,3599943E-004
30/08/2025 22:32:56.1973	5,4323155E-002	8,6626020E-004
30/08/2025 22:33:12.8975	-1,8533037E+002	-1,0946942E-001
30/08/2025 22:33:29.6975	-1,8539400E+002	-1,2864296E-001
30/08/2025 22:33:46.4975	-1,8531128E+002	-1,3608292E-001
30/08/2025 22:34:03.2975	-1,8531128E+002	-1,3973056E-001
30/08/2025 22:34:20.0975	-1,8534309E+002	-1,4193472E-001
30/08/2025 22:34:36.8975	-1,8536855E+002	-1,4328112E-001
30/08/2025 22:34:53.6975	-1,8533037E+002	-1,4427073E-001
30/08/2025 22:35:10.3977	2,1214803E+002	8,7063327E-002
30/08/2025 22:35:27.1977	2,1216077E+002	1,3114998E-001
30/08/2025 22:35:43.9977	2,1212257E+002	1,4806154E-001
30/08/2025 22:36:00.7977	2,1212257E+002	1,5578884E-001
30/08/2025 22:36:17.5977	2,1210985E+002	1,5918568E-001
30/08/2025 22:36:34.3977	2,1212894E+002	1,6113436E-001
30/08/2025 22:36:51.1977	2,1212257E+002	1,6287456E-001
30/08/2025 22:37:07.8981	8,6142294E-002	4,1418348E-002
30/08/2025 22:37:24.6981	1,0523378E-001	1,3705846E-002
30/08/2025 22:37:41.4981	9,2506140E-002	5,3716018E-003
30/08/2025 22:37:58.2981	1,1159762E-001	2,3553201E-003
30/08/2025 22:38:15.0981	1,0523378E-001	1,6079826E-003
30/08/2025 22:38:31.8981	9,2506140E-002	1,5899141E-003
30/08/2025 22:38:48.6981	1,7523590E-001	1,7240330E-003
30/08/2025 22:39:05.3983	-2,1185481E+002	-9,9900149E-002
30/08/2025 22:39:22.1983	-2,1181664E+002	-1,3965291E-001
30/08/2025 22:39:38.9983	-2,1181664E+002	-1,5344843E-001
30/08/2025 22:39:55.7983	-2,1182300E+002	-1,5966149E-001
30/08/2025 22:40:12.5983	-2,1185481E+002	-1,6256222E-001
30/08/2025 22:40:29.3983	-2,1182935E+002	-1,6450563E-001
30/08/2025 22:40:46.1983	-2,1188026E+002	-1,6634467E-001
30/08/2025 22:41:02.8985	2,3861520E+002	3,1224085E-002
30/08/2025 22:41:19.6985	2,3862791E+002	1,3282397E-001
30/08/2025 22:41:36.4985	2,3867249E+002	1,6139321E-001
30/08/2025 22:41:53.2985	2,3860883E+002	1,7488605E-001
30/08/2025 22:42:10.0985	2,3857701E+002	1,8182227E-001
30/08/2025 22:42:26.8985	2,3857063E+002	1,8497820E-001
30/08/2025 22:42:43.6985	2,3860883E+002	1,8681245E-001
30/08/2025 22:43:00.4985	2,3857701E+002	1,8849714E-001
30/08/2025 22:43:17.1989	1,7523590E-001	2,5387105E-002
30/08/2025 22:43:33.9989	1,8159975E-001	1,0070501E-002
30/08/2025 22:43:50.7989	6,7050815E-002	4,4783032E-003
30/08/2025 22:44:07.5989	5,4323155E-002	2,7367820E-003
30/08/2025 22:44:24.3989	1,2432528E-001	2,4628905E-003
30/08/2025 22:44:41.1989	9,8869957E-002	2,5683215E-003
30/08/2025 22:44:57.9989	9,2506140E-002	2,7376986E-003
30/08/2025 22:45:14.6991	-2,3830923E+002	-1,4375983E-001
30/08/2025 22:45:31.4991	-2,3835381E+002	-1,6767234E-001
30/08/2025 22:45:48.2991	-2,3824561E+002	-1,7828359E-001
30/08/2025 22:46:05.0991	-2,3836652E+002	-1,8394764E-001
30/08/2025 22:46:21.8991	-2,3833472E+002	-1,8668216E-001
30/08/2025 22:46:38.6991	-2,3832834E+002	-1,8863718E-001
30/08/2025 22:46:55.4991	-2,3839198E+002	-1,9067124E-001
30/08/2025 22:47:12.1993	2,6504419E+002	1,1860859E-001
30/08/2025 22:47:28.9993	2,6506961E+002	1,7076524E-001
30/08/2025 22:47:45.7993	2,6508871E+002	1,9245680E-001
30/08/2025 22:48:02.5993	2,6504419E+002	2,0343401E-001
30/08/2025 22:48:19.3993	2,6512054E+002	2,0925850E-001
30/08/2025 22:48:36.1993	2,6513327E+002	2,1308763E-001
30/08/2025 22:48:52.9993	2,6513962E+002	2,1533984E-001
30/08/2025 22:49:09.6997	9,2506140E-002	4,7883403E-002
30/08/2025 22:49:26.4997	7,9778478E-002	1,7571611E-002
30/08/2025 22:49:43.2997	6,7050815E-002	7,8462893E-003
30/08/2025 22:50:00.0997	1,1159762E-001	4,2704972E-003
30/08/2025 22:50:16.8997	6,7050815E-002	3,4165445E-003
30/08/2025 22:50:33.6997	1,3705294E-001	3,3964131E-003
30/08/2025 22:50:50.4997	1,1796144E-001	3,5711767E-003
30/08/2025 22:51:07.1999	-2,6478915E+002	-1,3283928E-001
30/08/2025 22:51:23.9999	-2,6481461E+002	-1,7866607E-001
30/08/2025 22:51:40.7999	-2,6478278E+002	-1,9579034E-001
30/08/2025 22:51:57.5999	-2,6477005E+002	-2,0431370E-001
30/08/2025 22:52:14.3999	-2,6473825E+002	-2,0927668E-001
30/08/2025 22:52:31.1999	-2,6480823E+002	-2,1282385E-001
30/08/2025 22:52:47.9999	-2,6482095E+002	-2,1503511E-001
30/08/2025 22:53:04.7001	2,9158771E+002	6,8932630E-002
30/08/2025 22:53:21.5001	2,9157498E+002	1,6974467E-001
30/08/2025 22:53:38.3001	2,9156860E+002	2,0573424E-001
30/08/2025 22:53:55.1001	2,9156223E+002	2,2448590E-001
30/08/2025 22:54:11.9001	2,9160678E+002	2,3383385E-001
30/08/2025 22:54:28.7001	2,9158771E+002	2,3983620E-001
30/08/2025 22:54:45.5001	2,9153680E+002	2,4492735E-001
30/08/2025 22:55:02.2005	1,4341676E-001	1,1800613E-001
30/08/2025 22:55:19.0005	9,8869957E-002	3,0795867E-002
30/08/2025 22:55:35.8005	9,2506140E-002	1,3298485E-002
30/08/2025 22:55:52.6005	9,7763510E-003	6,6584712E-003
30/08/2025 22:56:09.4005	1,4341676E-001	4,5891204E-003
30/08/2025 22:56:26.2005	9,2506140E-002	4,2648441E-003
30/08/2025 22:56:43.0005	1,2432528E-001	4,4051507E-003
30/08/2025 22:56:59.8005	6,7050815E-002	4,5977533E-003
30/08/2025 22:57:16.5007	-2,9136447E+002	-1,8074036E-001
30/08/2025 22:57:33.3007	-2,9135178E+002	-2,1076360E-001
30/08/2025 22:57:50.1007	-2,9135812E+002	-2,2483367E-001
30/08/2025 22:58:06.9007	-2,9137088E+002	-2,3204625E-001
30/08/2025 22:58:23.7007	-2,9139630E+002	-2,3688443E-001
30/08/2025 22:58:40.5007	-2,9136447E+002	-2,4134816E-001
30/08/2025 22:58:57.3007	-2,9133902E+002	-2,4502783E-001
30/08/2025 22:59:14.0009	3,1816940E+002	1,5283749E-001
30/08/2025 22:59:30.8009	3,1816302E+002	2,1302582E-001
30/08/2025 22:59:47.6009	3,1812488E+002	2,4158052E-001
30/08/2025 23:00:04.4009	3,1815033E+002	2,5824541E-001
30/08/2025 23:00:21.2009	3,1813760E+002	2,6986685E-001
30/08/2025 23:00:38.0009	3,1818216E+002	2,8198034E-001
30/08/2025 23:00:54.8009	3,1812488E+002	2,9419988E-001
30/08/2025 23:01:11.5013	8,6142294E-002	5,7626836E-002
30/08/2025 23:01:28.3013	1,2432528E-001	2,2992635E-002
30/08/2025 23:01:45.1013	1,1159762E-001	1,0949818E-002
30/08/2025 23:02:01.9013	1,1159762E-001	6,3983700E-003
30/08/2025 23:02:18.7013	1,1796144E-001	5,2765994E-003
30/08/2025 23:02:35.5013	7,9778478E-002	5,2183066E-003
30/08/2025 23:02:52.3013	7,3414646E-002	5,4178997E-003
30/08/2025 23:03:09.0015	-3,1788892E+002	-1,6816083E-001
30/08/2025 23:03:25.8015	-3,1782526E+002	-2,2025262E-001
30/08/2025 23:03:42.6015	-3,1777435E+002	-2,4228299E-001
30/08/2025 23:03:59.4015	-3,1792709E+002	-2,5479618E-001
30/08/2025 23:04:16.2015	-3,1781894E+002	-2,6271740E-001
30/08/2025 23:04:33.0015	-3,1789529E+002	-2,6965991E-001
30/08/2025 23:04:49.8015	-3,1785074E+002	-2,7705961E-001
30/08/2025 23:05:01.7017	-3,1795255E+002	-2,8276441E-001