File: data/phase_2a/Sergey/1/3.3/02 polarisation/SN50_C5D1E1_lr_0,1MFeCN6_in_1M_KCl_3306mL_symmetric_balanced_4_point_PEIS_10mHz_200kHz_10mV_03_CP_C16.txt
time/s	I/mA	<Ewe/V>
26/08/2025 20:02:04.3307	1,1159762E-001	-8,9270771E-002
26/08/2025 20:02:19.3307	1,3068911E-001	-4,9535986E-002
26/08/2025 20:02:34.3307	1,6250826E-001	-3,6620304E-002
26/08/2025 20:02:49.3307	1,0523378E-001	-2,8752478E-002
26/08/2025 20:03:04.3307	1,4978060E-001	-2,3428176E-002
26/08/2025 20:03:19.3307	1,1796144E-001	-1,9674908E-002
26/08/2025 20:03:34.3307	1,2432528E-001	-1,6904477E-002
26/08/2025 20:03:49.3307	1,0523378E-001	-1,4725532E-002
26/08/2025 20:04:04.3305	7,9778478E-002	-1,2986891E-002
26/08/2025 20:04:19.3305	1,3267017E+002	8,5959658E-002
26/08/2025 20:04:34.3305	1,3263199E+002	1,0643902E-001
26/08/2025 20:04:49.3305	1,3259380E+002	1,2124153E-001
26/08/2025 20:05:04.3305	1,3263199E+002	1,3312949E-001
26/08/2025 20:05:19.3305	1,3266380E+002	1,4332566E-001
26/08/2025 20:05:34.3305	1,3261288E+002	1,5287140E-001
26/08/2025 20:05:49.3305	1,3260652E+002	1,6256666E-001
26/08/2025 20:06:04.3305	1,3264470E+002	1,7218760E-001
26/08/2025 20:06:19.2307	9,2506140E-002	5,9192449E-002
26/08/2025 20:06:34.2307	1,4978060E-001	4,2483542E-002
26/08/2025 20:06:49.2307	1,6250826E-001	3,2346390E-002
26/08/2025 20:07:04.2307	1,8796356E-001	2,5479395E-002
26/08/2025 20:07:19.2307	1,4341676E-001	2,0663986E-002
26/08/2025 20:07:34.2307	1,6887209E-001	1,7091366E-002
26/08/2025 20:07:49.2307	1,4341676E-001	1,4277809E-002
26/08/2025 20:08:04.2307	1,3068911E-001	1,1985066E-002
26/08/2025 20:08:19.1309	-1,3234514E+002	-8,6742967E-002
26/08/2025 20:08:34.1309	-1,3237695E+002	-1,0800007E-001
26/08/2025 20:08:49.1309	-1,3235150E+002	-1,2341917E-001
26/08/2025 20:09:04.1309	-1,3231967E+002	-1,3581151E-001
26/08/2025 20:09:19.1309	-1,3240242E+002	-1,4672427E-001
26/08/2025 20:09:34.1309	-1,3242149E+002	-1,5736008E-001
26/08/2025 20:09:49.1309	-1,3245969E+002	-1,6800612E-001
26/08/2025 20:10:04.1309	-1,3235150E+002	-1,7842485E-001
26/08/2025 20:10:19.0311	1,5907368E+002	5,8863245E-002
26/08/2025 20:10:34.0311	1,5911823E+002	9,6102498E-002
26/08/2025 20:10:49.0311	1,5911188E+002	1,2164683E-001
26/08/2025 20:11:04.0311	1,5910551E+002	1,4065382E-001
26/08/2025 20:11:19.0311	1,5908643E+002	1,5550669E-001
26/08/2025 20:11:34.0311	1,5908005E+002	1,6837266E-001
26/08/2025 20:11:49.0311	1,5915642E+002	1,8161564E-001
26/08/2025 20:12:04.0311	1,5908643E+002	1,9670290E-001
26/08/2025 20:12:18.9315	7,9778478E-002	6,2784396E-002
26/08/2025 20:12:33.9315	1,1159762E-001	4,4669174E-002
26/08/2025 20:12:48.9315	1,8159975E-001	3,3908717E-002
26/08/2025 20:13:03.9315	1,3705294E-001	2,6817223E-002
26/08/2025 20:13:18.9315	1,4978060E-001	2,1899976E-002
26/08/2025 20:13:33.9315	1,3068911E-001	1,8339081E-002
26/08/2025 20:13:48.9315	1,0523378E-001	1,5559522E-002
26/08/2025 20:14:03.9315	1,7523590E-001	1,3318043E-002
26/08/2025 20:14:18.8317	-1,5885684E+002	-1,0458671E-001
26/08/2025 20:14:33.8317	-1,5887593E+002	-1,3101161E-001
26/08/2025 20:14:48.8317	-1,5886957E+002	-1,5071346E-001
26/08/2025 20:15:03.8317	-1,5886320E+002	-1,6713719E-001
26/08/2025 20:15:18.8317	-1,5894594E+002	-1,8286930E-001
26/08/2025 20:15:33.8317	-1,5884413E+002	-1,9902247E-001
26/08/2025 20:15:48.8317	-1,5891411E+002	-2,1573249E-001
26/08/2025 20:16:03.8317	-1,5883774E+002	-2,3550916E-001
26/08/2025 20:16:18.7319	1,8564905E+002	6,6835470E-002
26/08/2025 20:16:33.7319	1,8566177E+002	1,1152488E-001
26/08/2025 20:16:48.7319	1,8563631E+002	1,4289942E-001
26/08/2025 20:17:03.7319	1,8566177E+002	1,6689350E-001
26/08/2025 20:17:18.7319	1,8559177E+002	1,8597677E-001
26/08/2025 20:17:33.7319	1,8565540E+002	2,0328453E-001
26/08/2025 20:17:48.7319	1,8562360E+002	2,2262304E-001
26/08/2025 20:18:03.7319	1,8566812E+002	2,4623740E-001
26/08/2025 20:18:18.6323	1,4978060E-001	7,5944327E-002
26/08/2025 20:18:33.6323	1,9432738E-001	5,4208271E-002
26/08/2025 20:18:48.6323	1,4341676E-001	4,1322503E-002
26/08/2025 20:19:03.6323	9,8869957E-002	3,2797948E-002
26/08/2025 20:19:18.6323	1,3705294E-001	2,6909245E-002
26/08/2025 20:19:33.6323	1,3705294E-001	2,2665458E-002
26/08/2025 20:19:48.6323	9,2506140E-002	1,9373145E-002
26/08/2025 20:20:03.6323	1,0523378E-001	1,6682476E-002
26/08/2025 20:20:18.5325	-1,8529218E+002	-1,2087201E-001
26/08/2025 20:20:33.5325	-1,8530492E+002	-1,5280527E-001
26/08/2025 20:20:48.5325	-1,8527310E+002	-1,7725888E-001
26/08/2025 20:21:03.5325	-1,8537491E+002	-1,9915074E-001
26/08/2025 20:21:18.5325	-1,8533673E+002	-2,2220637E-001
26/08/2025 20:21:33.5325	-1,8531128E+002	-2,4630894E-001
26/08/2025 20:21:48.5325	-1,8529218E+002	-2,7966246E-001
26/08/2025 20:22:03.5325	-1,8534309E+002	-3,4308830E-001
26/08/2025 20:22:18.4327	2,1217984E+002	7,4463479E-002
26/08/2025 20:22:33.4327	2,1212257E+002	1,2641980E-001
26/08/2025 20:22:48.4327	2,1215439E+002	1,6337161E-001
26/08/2025 20:23:03.4327	2,1209712E+002	1,9204138E-001
26/08/2025 20:23:18.4327	2,1212894E+002	2,1488138E-001
26/08/2025 20:23:33.4327	2,1219894E+002	2,3553959E-001
26/08/2025 20:23:48.4327	2,1215439E+002	2,5891182E-001
26/08/2025 20:24:03.4327	2,1212257E+002	2,9414546E-001
26/08/2025 20:24:18.3331	1,6887209E-001	8,8915855E-002
26/08/2025 20:24:33.3331	1,4978060E-001	6,3920341E-002
26/08/2025 20:24:48.3331	1,6250826E-001	4,9089868E-002
26/08/2025 20:25:03.3331	1,2432528E-001	3,9262474E-002
26/08/2025 20:25:18.3331	9,2506140E-002	3,2460839E-002
26/08/2025 20:25:33.3331	7,9778478E-002	2,7569029E-002
26/08/2025 20:25:48.3331	1,8796356E-001	2,3769196E-002
26/08/2025 20:26:03.3331	1,6887209E-001	2,0734960E-002
26/08/2025 20:26:18.2333	-2,1182935E+002	-1,3601334E-001
26/08/2025 20:26:33.2333	-2,1180389E+002	-1,7395836E-001
26/08/2025 20:26:48.2333	-2,1183574E+002	-2,0280562E-001
26/08/2025 20:27:03.2333	-2,1173389E+002	-2,2815084E-001
26/08/2025 20:27:18.2333	-2,1188026E+002	-2,5469673E-001
26/08/2025 20:27:33.2333	-2,1180389E+002	-2,8799203E-001
26/08/2025 20:27:48.2333	-2,1179117E+002	-3,7879562E-001
26/08/2025 20:28:03.2333	-2,1182300E+002	-5,4122287E-001
26/08/2025 20:28:18.1335	2,3860883E+002	8,3094992E-002
26/08/2025 20:28:33.1335	2,3864066E+002	1,4091098E-001
26/08/2025 20:28:48.1335	2,3858337E+002	1,8271719E-001
26/08/2025 20:29:03.1335	2,3857701E+002	2,1559376E-001
26/08/2025 20:29:18.1335	2,3865338E+002	2,4139310E-001
26/08/2025 20:29:33.1335	2,3854518E+002	2,6307565E-001
26/08/2025 20:29:48.1335	2,3858974E+002	2,8533724E-001
26/08/2025 20:30:03.1335	2,3861520E+002	3,2263675E-001
26/08/2025 20:30:18.0339	9,2506140E-002	9,3389414E-002
26/08/2025 20:30:33.0339	1,8796356E-001	6,6949762E-002
26/08/2025 20:30:48.0339	1,8159975E-001	5,1724840E-002
26/08/2025 20:31:03.0339	9,8869957E-002	4,1650295E-002
26/08/2025 20:31:18.0339	1,1796144E-001	3,4689669E-002
26/08/2025 20:31:33.0339	1,2432528E-001	2,9611755E-002
26/08/2025 20:31:48.0339	1,6250826E-001	2,5743699E-002
26/08/2025 20:32:03.0339	1,0523378E-001	2,2562928E-002
26/08/2025 20:32:17.9341	-2,3830923E+002	-1,5312266E-001
26/08/2025 20:32:32.9341	-2,3830289E+002	-1,9647521E-001
26/08/2025 20:32:47.9341	-2,3832198E+002	-2,2879027E-001
26/08/2025 20:33:02.9341	-2,3839835E+002	-2,5539169E-001
26/08/2025 20:33:17.9341	-2,3824561E+002	-2,8047153E-001
26/08/2025 20:33:32.9341	-2,3830923E+002	-3,1934264E-001
26/08/2025 20:33:47.9341	-2,3834743E+002	-5,1970935E-001
26/08/2025 20:34:02.5659	2,6506961E+002	5,9936192E-002
26/08/2025 20:34:17.5659	2,6506961E+002	1,3789929E-001
26/08/2025 20:34:32.5659	2,6512689E+002	1,9036178E-001
26/08/2025 20:34:47.5659	2,6513962E+002	2,3222473E-001
26/08/2025 20:35:02.5659	2,6512054E+002	2,6546368E-001
26/08/2025 20:35:17.5659	2,6509509E+002	2,9374462E-001
26/08/2025 20:35:32.5659	2,6510782E+002	3,2323617E-001
26/08/2025 20:35:47.5659	2,6508234E+002	3,9906690E-001
26/08/2025 20:36:02.4661	1,3068911E-001	1,4276937E-001
26/08/2025 20:36:17.4661	1,3068911E-001	9,4299972E-002
26/08/2025 20:36:32.4661	1,2432528E-001	7,0541784E-002
26/08/2025 20:36:47.4661	6,7050815E-002	5,5410568E-002
26/08/2025 20:37:02.4661	1,1796144E-001	4,5104649E-002
26/08/2025 20:37:17.4661	1,8796356E-001	3,7791785E-002
26/08/2025 20:37:32.4661	2,0069122E-001	3,2358654E-002
26/08/2025 20:37:47.4661	5,4323155E-002	2,8070858E-002
26/08/2025 20:38:02.3663	-2,6471277E+002	-1,4007142E-001
26/08/2025 20:38:17.3663	-2,6475095E+002	-1,9843657E-001
26/08/2025 20:38:32.3663	-2,6478915E+002	-2,4002804E-001
26/08/2025 20:38:47.3663	-2,6486551E+002	-2,7371421E-001
26/08/2025 20:39:02.3663	-2,6473825E+002	-3,0505565E-001
26/08/2025 20:39:17.3663	-2,6478915E+002	-3,5768086E-001
26/08/2025 20:39:32.1603	-8,6195765E+000	-6,9254071E-001
26/08/2025 20:39:47.0605	2,9168951E+002	1,2219094E-001
26/08/2025 20:40:02.0605	2,9159409E+002	1,9057907E-001
26/08/2025 20:40:17.0605	2,9157498E+002	2,4448392E-001
26/08/2025 20:40:32.0605	2,9161316E+002	2,8854904E-001
26/08/2025 20:40:47.0605	2,9163226E+002	3,2655615E-001
26/08/2025 20:41:02.0605	2,9163861E+002	3,6882520E-001
26/08/2025 20:41:17.0605	2,9160678E+002	5,2600902E-001
26/08/2025 20:41:31.9529	-2,9131995E+002	-7,8443713E-002
26/08/2025 20:41:46.9529	-2,9128177E+002	-1,5710618E-001
26/08/2025 20:42:01.9529	-2,9132629E+002	-2,1413299E-001
26/08/2025 20:42:16.9529	-2,9138358E+002	-2,6112345E-001
26/08/2025 20:42:31.9529	-2,9130084E+002	-2,9950222E-001
26/08/2025 20:42:46.9529	-2,9130084E+002	-3,3396772E-001
26/08/2025 20:43:01.9529	-2,9135812E+002	-3,7674910E-001
26/08/2025 20:43:16.9529	-2,9134540E+002	-6,7670929E-001
26/08/2025 20:43:31.7337	3,1816302E+002	1,2473409E-001
26/08/2025 20:43:46.7337	3,1817581E+002	2,0343615E-001
26/08/2025 20:44:01.7337	3,1822031E+002	2,6668602E-001
26/08/2025 20:44:16.7337	3,1815033E+002	3,1964123E-001
26/08/2025 20:44:31.7337	3,1816302E+002	3,6897421E-001
26/08/2025 20:44:46.7337	3,1814395E+002	4,3934956E-001
26/08/2025 20:45:01.5523	-3,1781256E+002	-5,0451723E-003
26/08/2025 20:45:16.5523	-3,1786984E+002	-1,4170617E-001
26/08/2025 20:45:31.5523	-3,1782526E+002	-2,1246791E-001
26/08/2025 20:45:46.5523	-3,1783163E+002	-2,7127483E-001
26/08/2025 20:46:01.5523	-3,1787619E+002	-3,2042885E-001
26/08/2025 20:46:16.5523	-3,1784433E+002	-3,6582851E-001
26/08/2025 20:46:31.5523	-3,1789529E+002	-4,2661703E-001
26/08/2025 20:46:44.2877	-7,2953433E-002	-6,4697635E-001