File: data/phase_2a/Sergey/1/3.3/02 polarisation/SN50_C5D1E1_lr_0,1MFeCN6_in_1M_KCl_3306mL_symmetric_balanced_4_point_PEIS_10mHz_200kHz_10mV_02_CP_C16.txt
time/s	I/mA	<Ewe/V>
26/08/2025 19:28:04.2730	9,8867435E-003	-4,0240171E-003
26/08/2025 19:28:15.6730	5,4321769E-003	-4,0244395E-003
26/08/2025 19:28:27.0730	1,3704944E-002	-4,0330724E-003
26/08/2025 19:28:38.4730	7,9776440E-003	-4,0391083E-003
26/08/2025 19:28:49.8730	1,4341311E-002	-4,0464806E-003
26/08/2025 19:29:01.2730	1,3704944E-002	-4,0441505E-003
26/08/2025 19:29:12.6730	4,7958097E-003	-4,0483908E-003
26/08/2025 19:29:24.0730	1,0523110E-002	-4,0410948E-003
26/08/2025 19:29:35.4730	9,8867435E-003	-4,0407125E-003
26/08/2025 19:29:46.8730	9,2503773E-003	-4,0419349E-003
26/08/2025 19:29:58.2730	8,6140092E-003	-4,0435395E-003
26/08/2025 19:30:09.6730	6,0685435E-003	-4,0541585E-003
26/08/2025 19:30:21.0730	1,1159477E-002	-4,0467097E-003
26/08/2025 19:30:32.4730	9,8867435E-003	-4,0430808E-003
26/08/2025 19:30:43.8730	6,7049102E-003	-4,0438063E-003
26/08/2025 19:30:55.2730	9,2503773E-003	-4,0435395E-003
26/08/2025 19:31:06.6730	1,4341311E-002	-4,0490017E-003
26/08/2025 19:31:18.0730	1,6886778E-002	-4,0537384E-003
26/08/2025 19:31:29.4730	9,2503773E-003	-4,0553431E-003
26/08/2025 19:31:40.8730	7,3412773E-003	-4,0469388E-003
26/08/2025 19:31:52.2730	9,8867435E-003	-4,0535093E-003
26/08/2025 19:32:03.6730	1,3704944E-002	-4,0457165E-003
26/08/2025 19:32:15.0730	1,1795843E-002	-4,0430427E-003
26/08/2025 19:32:26.4730	2,2503431E-003	-4,0566032E-003
26/08/2025 19:32:37.8730	9,2503773E-003	-4,0508355E-003
26/08/2025 19:32:49.2730	1,3068578E-002	-4,0531270E-003
26/08/2025 19:33:00.6730	9,8867435E-003	-4,0490404E-003
26/08/2025 19:33:12.0730	1,1795843E-002	-4,0559927E-003
26/08/2025 19:33:23.4730	8,6140092E-003	-4,0576346E-003
26/08/2025 19:33:34.8730	8,6140092E-003	-4,0556104E-003
26/08/2025 19:33:46.2730	2,0704975E-002	-4,0577115E-003
26/08/2025 19:33:57.6730	1,0523110E-002	-4,0608058E-003
26/08/2025 19:34:09.0730	7,9776440E-003	-4,0603853E-003
26/08/2025 19:34:20.4730	6,7049102E-003	-4,0527070E-003
26/08/2025 19:34:31.8730	9,8867435E-003	-4,0564509E-003
26/08/2025 19:34:43.2730	9,2503773E-003	-4,0545026E-003
26/08/2025 19:34:54.6730	5,4321769E-003	-4,0619900E-003
26/08/2025 19:35:06.0730	1,0523110E-002	-4,0561450E-003
26/08/2025 19:35:17.4730	4,1594426E-003	-4,0591629E-003
26/08/2025 19:35:28.8730	9,2503773E-003	-4,0533184E-003
26/08/2025 19:35:40.2730	1,0523110E-002	-4,0459461E-003
26/08/2025 19:35:51.6730	6,7049102E-003	-4,0491167E-003
26/08/2025 19:36:03.0730	3,5230771E-003	-4,0524015E-003
26/08/2025 19:36:14.4730	6,7049102E-003	-4,0587429E-003
26/08/2025 19:36:25.8730	9,2503773E-003	-4,0627155E-003
26/08/2025 19:36:37.2730	2,8867100E-003	-4,0545026E-003
26/08/2025 19:36:48.6730	1,4341311E-002	-4,0491167E-003
26/08/2025 19:37:00.0730	1,1159477E-002	-4,0500718E-003
26/08/2025 19:37:11.4730	8,6140092E-003	-4,0526688E-003
26/08/2025 19:37:22.8730	6,0685435E-003	-4,0636705E-003
26/08/2025 19:37:34.2730	9,2503773E-003	-4,0564891E-003
26/08/2025 19:37:45.6730	1,0523110E-002	-4,0556486E-003
26/08/2025 19:37:57.0730	1,6886778E-002	-4,0502623E-003
26/08/2025 19:38:08.4256	2,6508196E+001	1,0758362E-002
26/08/2025 19:38:19.8256	2,6508196E+001	1,5443739E-002
26/08/2025 19:38:31.2256	2,6515833E+001	1,8217454E-002
26/08/2025 19:38:42.6256	2,6506285E+001	2,0259300E-002
26/08/2025 19:38:54.0256	2,6505014E+001	2,1758063E-002
26/08/2025 19:39:05.4256	2,6507559E+001	2,3039583E-002
26/08/2025 19:39:16.8256	2,6507559E+001	2,3973107E-002
26/08/2025 19:39:28.2256	2,6509470E+001	2,4835387E-002
26/08/2025 19:39:39.6256	2,6508196E+001	2,5486195E-002
26/08/2025 19:39:51.0256	2,6511377E+001	2,6109993E-002
26/08/2025 19:40:02.4256	2,6509470E+001	2,6643071E-002
26/08/2025 19:40:13.7258	1,1159477E-002	9,6213492E-003
26/08/2025 19:40:25.1258	1,4977678E-002	6,5509775E-003
26/08/2025 19:40:36.5258	4,1594426E-003	4,5260531E-003
26/08/2025 19:40:47.9258	5,4321769E-003	3,1277933E-003
26/08/2025 19:40:59.3258	2,8867100E-003	2,0630166E-003
26/08/2025 19:41:10.7258	8,6140092E-003	1,2492116E-003
26/08/2025 19:41:22.1258	1,0523110E-002	6,1960507E-004
26/08/2025 19:41:33.5258	8,6140092E-003	1,0406278E-004
26/08/2025 19:41:44.9258	9,8867435E-003	-3,1594222E-004
26/08/2025 19:41:56.3258	1,0523110E-002	-6,7318522E-004
26/08/2025 19:42:07.6260	-2,6486509E+001	-1,5224115E-002
26/08/2025 19:42:19.0260	-2,6482054E+001	-2,0484358E-002
26/08/2025 19:42:30.4260	-2,6480783E+001	-2,3657411E-002
26/08/2025 19:42:41.8260	-2,6481419E+001	-2,5912527E-002
26/08/2025 19:42:53.2260	-2,6485235E+001	-2,7690222E-002
26/08/2025 19:43:04.6260	-2,6485235E+001	-2,9115720E-002
26/08/2025 19:43:16.0260	-2,6487148E+001	-3,0249216E-002
26/08/2025 19:43:27.4260	-2,6481419E+001	-3,1267200E-002
26/08/2025 19:43:38.8260	-2,6483963E+001	-3,2042921E-002
26/08/2025 19:43:50.2260	-2,6486509E+001	-3,2838043E-002
26/08/2025 19:44:01.6260	-2,6485874E+001	-3,3419713E-002
26/08/2025 19:44:12.9262	5,3010960E+001	1,7567562E-002
26/08/2025 19:44:24.3262	5,3017323E+001	2,7971463E-002
26/08/2025 19:44:35.7262	5,3013508E+001	3,4837160E-002
26/08/2025 19:44:47.1262	5,3013508E+001	3,9935168E-002
26/08/2025 19:44:58.5262	5,3014778E+001	4,3759335E-002
26/08/2025 19:45:09.9262	5,3011597E+001	4,6945412E-002
26/08/2025 19:45:21.3262	5,3012230E+001	4,9320135E-002
26/08/2025 19:45:32.7262	5,3010960E+001	5,1545110E-002
26/08/2025 19:45:44.1262	5,3014778E+001	5,3225089E-002
26/08/2025 19:45:55.5262	5,3012867E+001	5,4876115E-002
26/08/2025 19:46:06.8266	6,0685435E-003	2,8575284E-002
26/08/2025 19:46:18.2266	1,3068578E-002	1,8791554E-002
26/08/2025 19:46:29.6266	1,1159477E-002	1,3957276E-002
26/08/2025 19:46:41.0266	1,3068578E-002	1,0641623E-002
26/08/2025 19:46:52.4266	9,2503773E-003	8,3057545E-003
26/08/2025 19:47:03.8266	6,7049102E-003	6,5390593E-003
26/08/2025 19:47:15.2266	1,0523110E-002	5,2252589E-003
26/08/2025 19:47:26.6266	1,1795843E-002	4,2004008E-003
26/08/2025 19:47:38.0266	1,1159477E-002	3,3668084E-003
26/08/2025 19:47:49.4266	1,4977678E-002	2,6851359E-003
26/08/2025 19:48:00.8266	1,5614044E-002	2,0863947E-003
26/08/2025 19:48:12.1268	-5,2978451E+001	-3,1926561E-002
26/08/2025 19:48:23.5268	-5,2977180E+001	-3,9986230E-002
26/08/2025 19:48:34.9268	-5,2982906E+001	-4,5567881E-002
26/08/2025 19:48:46.3268	-5,2977814E+001	-4,9655896E-002
26/08/2025 19:48:57.7268	-5,2974636E+001	-5,3010777E-002
26/08/2025 19:49:09.1268	-5,2978451E+001	-5,5660378E-002
26/08/2025 19:49:20.5268	-5,2979729E+001	-5,7876568E-002
26/08/2025 19:49:31.9268	-5,2982906E+001	-5,9891675E-002
26/08/2025 19:49:43.3268	-5,2975906E+001	-6,1476655E-002
26/08/2025 19:49:54.7268	-5,2978451E+001	-6,3103579E-002
26/08/2025 19:50:06.0270	7,9512444E+001	1,6241027E-003
26/08/2025 19:50:17.4270	7,9512444E+001	3,0166682E-002
26/08/2025 19:50:28.8270	7,9514992E+001	4,4367742E-002
26/08/2025 19:50:40.2270	7,9510536E+001	5,4429561E-002
26/08/2025 19:50:51.6270	7,9507347E+001	6,1994199E-002
26/08/2025 19:51:03.0269	7,9507996E+001	6,7799784E-002
26/08/2025 19:51:14.4269	7,9505440E+001	7,2638027E-002
26/08/2025 19:51:25.8269	7,9511177E+001	7,6375477E-002
26/08/2025 19:51:37.2269	7,9511177E+001	7,9920985E-002
26/08/2025 19:51:48.6269	7,9513718E+001	8,2696572E-002
26/08/2025 19:52:00.0269	7,9509262E+001	8,5566469E-002
26/08/2025 19:52:11.3273	1,6250411E-002	3,6591940E-002
26/08/2025 19:52:22.7273	6,7049102E-003	2,6198503E-002
26/08/2025 19:52:34.1273	6,7049102E-003	2,0134846E-002
26/08/2025 19:52:45.5273	1,0523110E-002	1,5854880E-002
26/08/2025 19:52:56.9273	1,2432210E-002	1,2828248E-002
26/08/2025 19:53:08.3273	1,0523110E-002	1,0526643E-002
26/08/2025 19:53:19.7273	1,6886778E-002	8,7966574E-003
26/08/2025 19:53:31.1273	1,4977678E-002	7,4432828E-003
26/08/2025 19:53:42.5273	9,7761012E-004	6,3180742E-003
26/08/2025 19:53:53.9273	1,0523110E-002	5,3829853E-003
26/08/2025 19:54:05.2275	-7,9477394E+001	-3,1431153E-002
26/08/2025 19:54:16.6275	-7,9473579E+001	-5,1736780E-002
26/08/2025 19:54:28.0275	-7,9472939E+001	-6,1945099E-002
26/08/2025 19:54:39.4275	-7,9469749E+001	-6,9600381E-002
26/08/2025 19:54:50.8275	-7,9477394E+001	-7,5329296E-002
26/08/2025 19:55:02.2275	-7,9469124E+001	-8,0229200E-002
26/08/2025 19:55:13.6275	-7,9470398E+001	-8,4131792E-002
26/08/2025 19:55:25.0275	-7,9472305E+001	-8,7560177E-002
26/08/2025 19:55:36.4275	-7,9474213E+001	-9,0637460E-002
26/08/2025 19:55:47.8275	-7,9471664E+001	-9,3247756E-002
26/08/2025 19:55:59.2275	-7,9479301E+001	-9,5938116E-002
26/08/2025 19:56:10.5277	1,0601713E+002	1,9294109E-002
26/08/2025 19:56:21.9277	1,0601012E+002	4,7061961E-002
26/08/2025 19:56:33.3277	1,0600822E+002	6,4087272E-002
26/08/2025 19:56:44.7277	1,0601266E+002	7,6763101E-002
26/08/2025 19:56:56.1277	1,0601585E+002	8,6444907E-002
26/08/2025 19:57:07.5277	1,0601203E+002	9,4100110E-002
26/08/2025 19:57:18.9277	1,0601140E+002	1,0052018E-001
26/08/2025 19:57:30.3277	1,0601331E+002	1,0568409E-001
26/08/2025 19:57:41.7277	1,0600822E+002	1,1069969E-001
26/08/2025 19:57:53.1277	1,0601203E+002	1,1494061E-001
26/08/2025 19:58:04.4281	1,2432210E-002	7,4950829E-002
26/08/2025 19:58:15.8281	6,0685435E-003	4,3630373E-002
26/08/2025 19:58:27.2281	1,4977678E-002	3,2622155E-002
26/08/2025 19:58:38.6281	1,4977678E-002	2,5669934E-002
26/08/2025 19:58:50.0281	9,2503773E-003	2,0678464E-002
26/08/2025 19:59:01.4281	7,3412773E-003	1,7112527E-002
26/08/2025 19:59:12.8281	1,1159477E-002	1,4369107E-002
26/08/2025 19:59:24.2281	1,1159477E-002	1,2320651E-002
26/08/2025 19:59:35.6281	8,6140092E-003	1,0650028E-002
26/08/2025 19:59:47.0281	1,2432210E-002	9,2662461E-003
26/08/2025 19:59:58.4281	7,3412773E-003	8,1217848E-003
26/08/2025 20:00:09.7283	-1,0597443E+002	-5,5172760E-002
26/08/2025 20:00:21.1283	-1,0597570E+002	-7,3943034E-002
26/08/2025 20:00:32.5283	-1,0597825E+002	-8,6029738E-002
26/08/2025 20:00:43.9283	-1,0597314E+002	-9,5609941E-002
26/08/2025 20:00:55.3283	-1,0597314E+002	-1,0300833E-001
26/08/2025 20:01:06.7283	-1,0597697E+002	-1,0964273E-001
26/08/2025 20:01:18.1283	-1,0596870E+002	-1,1498847E-001
26/08/2025 20:01:29.5283	-1,0597251E+002	-1,2008942E-001
26/08/2025 20:01:40.9283	-1,0596997E+002	-1,2487900E-001
26/08/2025 20:01:52.3283	-1,0597189E+002	-1,2923340E-001
26/08/2025 20:02:03.7283	-1,0597443E+002	-1,3377760E-001
26/08/2025 20:02:04.2285	-1,0596933E+002	-1,3378584E-001