File: data/phase_2a/Sergey/3/8.3/02 polarisation/C7D1_hr 0,1MFeCN6_in_1M_KCl_3306mL_symmetric_balanced_4_point_PEIS_03_CP_C16.txt
time/s	I/mA	<Ewe/V>
03/09/2025 14:14:00.8467	1,0523378E-001	-2,4603305E-002
03/09/2025 14:14:17.6467	9,8869957E-002	-4,8256484E-003
03/09/2025 14:14:34.4467	8,6142294E-002	-4,9504084E-003
03/09/2025 14:14:51.2467	1,5614443E-001	-4,9543045E-003
03/09/2025 14:15:08.0467	1,0523378E-001	-4,9501029E-003
03/09/2025 14:15:24.8467	1,2432528E-001	-4,9537695E-003
03/09/2025 14:15:41.6467	4,1595493E-002	-4,9461680E-003
03/09/2025 14:15:58.4467	1,5614443E-001	-4,9627465E-003
03/09/2025 14:16:15.2465	1,3260016E+002	6,4101279E-002
03/09/2025 14:16:32.0465	1,3257471E+002	6,4800106E-002
03/09/2025 14:16:48.8465	1,3258107E+002	6,5528341E-002
03/09/2025 14:17:05.6465	1,3251744E+002	6,6202112E-002
03/09/2025 14:17:22.4465	1,3258743E+002	6,6983901E-002
03/09/2025 14:17:39.2465	1,3256197E+002	6,7697927E-002
03/09/2025 14:17:56.0465	1,3257471E+002	6,8415016E-002
03/09/2025 14:18:12.7467	1,1796144E-001	4,0923015E-004
03/09/2025 14:18:29.5467	1,1796144E-001	6,1116858E-005
03/09/2025 14:18:46.3467	3,5231672E-002	8,9537389E-005
03/09/2025 14:19:03.1467	1,5614443E-001	8,1515464E-005
03/09/2025 14:19:19.9467	6,7050815E-002	7,5556316E-005
03/09/2025 14:19:36.7467	7,3414646E-002	8,9881185E-005
03/09/2025 14:19:53.5467	1,2432528E-001	9,1791168E-005
03/09/2025 14:20:10.2469	-1,3235150E+002	-6,7214526E-002
03/09/2025 14:20:27.0469	-1,3235150E+002	-6,9263548E-002
03/09/2025 14:20:43.8469	-1,3234514E+002	-6,9949269E-002
03/09/2025 14:21:00.6469	-1,3239604E+002	-7,0753984E-002
03/09/2025 14:21:17.4469	-1,3244696E+002	-7,1505792E-002
03/09/2025 14:21:34.2469	-1,3234514E+002	-7,2253391E-002
03/09/2025 14:21:51.0469	-1,3240242E+002	-7,2972767E-002
03/09/2025 14:22:07.7471	1,5910551E+002	7,0415907E-002
03/09/2025 14:22:24.5471	1,5905460E+002	7,8534782E-002
03/09/2025 14:22:41.3471	1,5908643E+002	7,9204038E-002
03/09/2025 14:22:58.1471	1,5912460E+002	8,0129355E-002
03/09/2025 14:23:14.9471	1,5904825E+002	8,1000611E-002
03/09/2025 14:23:31.7471	1,5908005E+002	8,1868969E-002
03/09/2025 14:23:48.5471	1,5904825E+002	8,2786255E-002
03/09/2025 14:24:05.2475	7,3414646E-002	8,8712517E-003
03/09/2025 14:24:22.0475	7,9778478E-002	8,6693827E-004
03/09/2025 14:24:38.8475	1,3068911E-001	1,0394097E-003
03/09/2025 14:24:55.6475	9,2506140E-002	1,0315786E-003
03/09/2025 14:25:12.4475	1,6250826E-001	1,0358188E-003
03/09/2025 14:25:29.2475	1,3068911E-001	1,0346345E-003
03/09/2025 14:25:46.0475	1,1159762E-001	1,0293630E-003
03/09/2025 14:26:02.7477	-1,5890776E+002	-6,4396411E-002
03/09/2025 14:26:19.5477	-1,5888866E+002	-8,2057908E-002
03/09/2025 14:26:36.3477	-1,5886320E+002	-8,2791492E-002
03/09/2025 14:26:53.1477	-1,5888866E+002	-8,3691739E-002
03/09/2025 14:27:09.9477	-1,5888866E+002	-8,4625229E-002
03/09/2025 14:27:26.7477	-1,5886320E+002	-8,5459158E-002
03/09/2025 14:27:43.5477	-1,5890138E+002	-8,6437494E-002
03/09/2025 14:28:00.3477	-1,5886320E+002	-8,7408453E-002
03/09/2025 14:28:17.0479	1,8560449E+002	9,2205442E-002
03/09/2025 14:28:33.8479	1,8562360E+002	9,2967331E-002
03/09/2025 14:28:50.6479	1,8561722E+002	9,4006896E-002
03/09/2025 14:29:07.4479	1,8565540E+002	9,4991229E-002
03/09/2025 14:29:24.2479	1,8559813E+002	9,6086293E-002
03/09/2025 14:29:41.0479	1,8559813E+002	9,7206421E-002
03/09/2025 14:29:57.8479	1,8564267E+002	9,8265015E-002
03/09/2025 14:30:14.5483	1,4978060E-001	2,0376425E-003
03/09/2025 14:30:31.3483	8,6142294E-002	1,9689214E-003
03/09/2025 14:30:48.1483	1,1159762E-001	1,9922615E-003
03/09/2025 14:31:04.9483	1,0523378E-001	1,9979530E-003
03/09/2025 14:31:21.7483	9,8869957E-002	1,9879066E-003
03/09/2025 14:31:38.5483	7,3414646E-002	1,9844687E-003
03/09/2025 14:31:55.3483	9,2506140E-002	1,9874100E-003
03/09/2025 14:32:12.0485	-1,8537491E+002	-9,3661115E-002
03/09/2025 14:32:28.8485	-1,8534946E+002	-9,5512658E-002
03/09/2025 14:32:45.6485	-1,8533037E+002	-9,6542709E-002
03/09/2025 14:33:02.4485	-1,8535582E+002	-9,7617038E-002
03/09/2025 14:33:19.2485	-1,8526674E+002	-9,8745190E-002
03/09/2025 14:33:36.0485	-1,8534946E+002	-9,9829443E-002
03/09/2025 14:33:52.8485	-1,8537491E+002	-1,0093334E-001
03/09/2025 14:34:09.5487	2,1210349E+002	1,0013840E-001
03/09/2025 14:34:26.3487	2,1209074E+002	1,0680733E-001
03/09/2025 14:34:43.1487	2,1212257E+002	1,0775796E-001
03/09/2025 14:34:59.9487	2,1212257E+002	1,0904113E-001
03/09/2025 14:35:16.7487	2,1209712E+002	1,1029106E-001
03/09/2025 14:35:33.5487	2,1214803E+002	1,1161942E-001
03/09/2025 14:35:50.3487	2,1210349E+002	1,1283562E-001
03/09/2025 14:36:07.0491	1,2432528E-001	9,0302005E-003
03/09/2025 14:36:23.8491	7,9778478E-002	2,7721834E-003
03/09/2025 14:36:40.6491	1,2432528E-001	2,9606987E-003
03/09/2025 14:36:57.4491	1,1159762E-001	2,9454951E-003
03/09/2025 14:37:14.2491	1,6140183E-002	2,9401854E-003
03/09/2025 14:37:31.0491	1,8796356E-001	2,9540136E-003
03/09/2025 14:37:47.8491	1,0523378E-001	2,9465647E-003
03/09/2025 14:38:04.5493	-2,1180389E+002	-9,3225189E-002
03/09/2025 14:38:21.3493	-2,1181664E+002	-1,0840706E-001
03/09/2025 14:38:38.1493	-2,1183574E+002	-1,0927048E-001
03/09/2025 14:38:54.9493	-2,1182300E+002	-1,1068284E-001
03/09/2025 14:39:11.7493	-2,1180389E+002	-1,1197727E-001
03/09/2025 14:39:28.5493	-2,1184845E+002	-1,1319569E-001
03/09/2025 14:39:45.3493	-2,1183574E+002	-1,1444955E-001
03/09/2025 14:40:02.0495	2,3862791E+002	6,1872296E-002
03/09/2025 14:40:18.8495	2,3861520E+002	1,2069493E-001
03/09/2025 14:40:35.6495	2,3857701E+002	1,2157482E-001
03/09/2025 14:40:52.4495	2,3860246E+002	1,2307988E-001
03/09/2025 14:41:09.2495	2,3859610E+002	1,2449300E-001
03/09/2025 14:41:26.0495	2,3858974E+002	1,2589538E-001
03/09/2025 14:41:42.8495	2,3857063E+002	1,2736049E-001
03/09/2025 14:41:59.6495	2,3862155E+002	1,2890269E-001
03/09/2025 14:42:16.3499	1,2432528E-001	3,7233164E-003
03/09/2025 14:42:33.1499	9,8869957E-002	3,9077057E-003
03/09/2025 14:42:49.9499	1,3705294E-001	3,9071711E-003
03/09/2025 14:43:06.7499	2,1978271E-001	3,8967808E-003
03/09/2025 14:43:23.5499	1,2432528E-001	3,8983470E-003
03/09/2025 14:43:40.3499	1,2432528E-001	3,8999512E-003
03/09/2025 14:43:57.1499	7,3414646E-002	3,9004479E-003
03/09/2025 14:44:13.8501	-2,3832198E+002	-1,2040908E-001
03/09/2025 14:44:30.6501	-2,3835381E+002	-1,2224618E-001
03/09/2025 14:44:47.4501	-2,3831561E+002	-1,2362954E-001
03/09/2025 14:45:04.2501	-2,3832198E+002	-1,2505236E-001
03/09/2025 14:45:21.0501	-2,3833472E+002	-1,2650006E-001
03/09/2025 14:45:37.8501	-2,3833472E+002	-1,2797341E-001
03/09/2025 14:45:54.6501	-2,3834106E+002	-1,2955156E-001
03/09/2025 14:46:11.3503	2,6517145E+002	1,3052654E-001
03/09/2025 14:46:28.1503	2,6509509E+002	1,3562834E-001
03/09/2025 14:46:44.9503	2,6507599E+002	1,3703309E-001
03/09/2025 14:47:01.7503	2,6505692E+002	1,3867339E-001
03/09/2025 14:47:18.5503	2,6503146E+002	1,4030069E-001
03/09/2025 14:47:35.3503	2,6506961E+002	1,4210533E-001
03/09/2025 14:47:52.1503	2,6519055E+002	1,4379910E-001
03/09/2025 14:48:08.8507	1,4341676E-001	9,0081599E-003
03/09/2025 14:48:25.6507	1,1796144E-001	4,7103949E-003
03/09/2025 14:48:42.4507	6,7050815E-002	4,8829429E-003
03/09/2025 14:48:59.2507	9,8869957E-002	4,8689232E-003
03/09/2025 14:49:16.0507	1,5614443E-001	4,8710625E-003
03/09/2025 14:49:32.8507	1,3705294E-001	4,8691146E-003
03/09/2025 14:49:49.6507	1,1159762E-001	4,8710625E-003
03/09/2025 14:50:06.3509	-2,6471915E+002	-1,2268738E-001
03/09/2025 14:50:23.1509	-2,6484641E+002	-1,3519402E-001
03/09/2025 14:50:39.9509	-2,6473187E+002	-1,3645574E-001
03/09/2025 14:50:56.7509	-2,6477005E+002	-1,3808985E-001
03/09/2025 14:51:13.5509	-2,6478278E+002	-1,3989292E-001
03/09/2025 14:51:30.3509	-2,6484006E+002	-1,4151208E-001
03/09/2025 14:51:47.1509	-2,6475095E+002	-1,4320293E-001
03/09/2025 14:52:03.8511	2,9160678E+002	1,0378299E-001
03/09/2025 14:52:20.6511	2,9170227E+002	1,4991176E-001
03/09/2025 14:52:37.4511	2,9155588E+002	1,5094338E-001
03/09/2025 14:52:54.2511	2,9163861E+002	1,5289176E-001
03/09/2025 14:53:11.0511	2,9158136E+002	1,5481997E-001
03/09/2025 14:53:27.8511	2,9164499E+002	1,5672134E-001
03/09/2025 14:53:44.6511	2,9160678E+002	1,5860242E-001
03/09/2025 14:54:01.3515	1,4978060E-001	5,3083971E-002
03/09/2025 14:54:18.1515	9,8869957E-002	5,4911571E-003
03/09/2025 14:54:34.9515	1,4341676E-001	5,8382391E-003
03/09/2025 14:54:51.7515	1,2432528E-001	5,8231121E-003
03/09/2025 14:55:08.5515	9,8869957E-002	5,8345338E-003
03/09/2025 14:55:25.3515	1,4341676E-001	5,8309813E-003
03/09/2025 14:55:42.1515	1,3068911E-001	5,8291857E-003
03/09/2025 14:55:58.9515	2,0705505E-001	5,8250604E-003
03/09/2025 14:56:15.6517	-2,9130084E+002	-1,4767641E-001
03/09/2025 14:56:32.4517	-2,9132629E+002	-1,4951040E-001
03/09/2025 14:56:49.2517	-2,9130722E+002	-1,5131454E-001
03/09/2025 14:57:06.0517	-2,9129449E+002	-1,5319850E-001
03/09/2025 14:57:22.8517	-2,9128177E+002	-1,5505394E-001
03/09/2025 14:57:39.6517	-2,9135812E+002	-1,5693584E-001
03/09/2025 14:57:56.4517	-2,9131995E+002	-1,5898097E-001
03/09/2025 14:58:13.1519	3,1813760E+002	1,6151008E-001
03/09/2025 14:58:29.9519	3,1817581E+002	1,6521034E-001
03/09/2025 14:58:46.7519	3,1815671E+002	1,6724397E-001
03/09/2025 14:59:03.5519	3,1820761E+002	1,6929927E-001
03/09/2025 14:59:20.3519	3,1821399E+002	1,7140219E-001
03/09/2025 14:59:37.1519	3,1816940E+002	1,7370954E-001
03/09/2025 14:59:53.9519	3,1812488E+002	1,7598245E-001
03/09/2025 15:00:10.6523	1,3705294E-001	9,1902949E-003
03/09/2025 15:00:27.4523	1,0523378E-001	6,6811144E-003
03/09/2025 15:00:44.2523	1,1796144E-001	6,8091974E-003
03/09/2025 15:01:01.0523	1,5614443E-001	6,7998767E-003
03/09/2025 15:01:17.8523	1,0523378E-001	6,8080900E-003
03/09/2025 15:01:34.6523	2,8867837E-002	6,8070586E-003
03/09/2025 15:01:51.4523	2,2504006E-002	6,8014045E-003
03/09/2025 15:02:08.1525	-3,1784433E+002	-1,5274416E-001
03/09/2025 15:02:24.9525	-3,1781894E+002	-1,6268723E-001
03/09/2025 15:02:41.7525	-3,1790802E+002	-1,6432874E-001
03/09/2025 15:02:58.5525	-3,1785074E+002	-1,6642238E-001
03/09/2025 15:03:15.3525	-3,1786346E+002	-1,6860332E-001
03/09/2025 15:03:32.1525	-3,1787619E+002	-1,7078172E-001
03/09/2025 15:03:48.9525	-3,1785074E+002	-1,7288625E-001
03/09/2025 15:04:00.8527	-3,1795255E+002	-1,7463964E-001