File: data/phase_2a/Sergey/3/8.3/02 polarisation/C7D1_hr 0,1MFeCN6_in_1M_KCl_3306mL_symmetric_balanced_4_point_PEIS_04_CA_C16.txt
time/s	<I>/mA	Ewe/V
03/09/2025 15:04:01.9511	1,375001378184190E+002	-2,0918909E-003
03/09/2025 15:04:25.9511	5,523372934341424E+000	-2,0727911E-003
03/09/2025 15:04:49.9511	5,636271450328827E+000	-2,0345915E-003
03/09/2025 15:05:13.9511	5,543894698524475E+000	-2,0727911E-003
03/09/2025 15:05:37.9511	5,458230082035058E+000	-2,1491903E-003
03/09/2025 15:06:01.9511	5,364077474975588E+000	-2,1682901E-003
03/09/2025 15:06:25.9511	5,276226610946651E+000	-2,2064899E-003
03/09/2025 15:06:49.9511	5,190534670925132E+000	-2,2446895E-003
03/09/2025 15:07:13.9511	5,110816998100280E+000	-2,0727911E-003
03/09/2025 15:07:37.9511	5,032852528953555E+000	-2,1300905E-003
03/09/2025 15:08:01.9511	4,938110366630553E+000	-2,0918909E-003
03/09/2025 15:08:25.9511	4,842908524036403E+000	-2,1873901E-003
03/09/2025 15:08:49.9511	4,779068031024931E+000	-2,2255897E-003
03/09/2025 15:09:13.9511	4,698553588581083E+000	-2,1491903E-003
03/09/2025 15:09:37.9511	4,621693655014035E+000	-2,1491903E-003
03/09/2025 15:10:01.9511	4,545158682060233E+000	-2,1873901E-003
03/09/2025 15:10:25.9511	4,483462426948542E+000	-2,1300905E-003
03/09/2025 15:10:49.9511	4,408024473476402E+000	-2,1682901E-003
03/09/2025 15:11:13.9511	4,347968462181093E+000	-2,2064899E-003
03/09/2025 15:11:37.9511	4,282536821937555E+000	-2,1300905E-003
03/09/2025 15:12:01.9511	4,208766460227967E+000	-2,1873901E-003
03/09/2025 15:12:25.9511	4,144286199092861E+000	-2,0918909E-003
03/09/2025 15:12:49.9511	4,099820573425291E+000	-1,9772921E-003
03/09/2025 15:13:13.9511	4,032635699033737E+000	-2,1109907E-003
03/09/2025 15:13:37.9511	3,965776759529106E+000	-2,1109907E-003
03/09/2025 15:14:01.9511	3,894871225070953E+000	-2,0918909E-003
03/09/2025 15:14:25.9511	3,843121450853332E+000	-2,0918909E-003
03/09/2025 15:14:49.9511	3,781506916332233E+000	-2,1682901E-003
03/09/2025 15:15:13.9511	3,724384202241893E+000	-2,0918909E-003
03/09/2025 15:15:37.9511	3,678022437620161E+000	-2,2255897E-003
03/09/2025 15:16:01.9511	3,622693070268630E+000	-2,1300905E-003
03/09/2025 15:16:25.9511	3,560411334800705E+000	-2,2446895E-003
03/09/2025 15:16:49.9511	3,505143496894831E+000	-2,1300905E-003
03/09/2025 15:17:13.9511	3,451891072320940E+000	-2,1682901E-003
03/09/2025 15:17:37.9511	3,399586067247384E+000	-2,1682901E-003
03/09/2025 15:18:01.9511	3,350618433141705E+000	-2,0536913E-003
03/09/2025 15:18:25.9511	3,289108374643320E+000	-2,1109907E-003
03/09/2025 15:18:49.9511	3,252828629684444E+000	-2,1873901E-003
03/09/2025 15:19:13.9511	3,202560854816436E+000	-2,0727911E-003
03/09/2025 15:19:37.9511	3,155062155437470E+000	-2,1300905E-003
03/09/2025 15:20:01.9511	3,104710590553283E+000	-2,1300905E-003
03/09/2025 15:20:25.9511	3,056081511926651E+000	-2,1873901E-003
03/09/2025 15:20:49.9511	3,004684634542464E+000	-2,1491903E-003
03/09/2025 15:21:13.9511	2,965832302141187E+000	-2,1300905E-003
03/09/2025 15:21:37.9511	2,924088964176177E+000	-2,0727911E-003
03/09/2025 15:22:01.9511	2,877799306058883E+000	-2,1491903E-003
03/09/2025 15:22:25.9511	2,832921744680405E+000	-2,0918909E-003
03/09/2025 15:22:49.9511	2,786533050251002E+000	-2,1682901E-003
03/09/2025 15:23:13.9511	2,750391400289537E+000	-2,2064899E-003
03/09/2025 15:23:37.9511	2,712456924915314E+000	-2,0918909E-003
03/09/2025 15:24:01.9511	2,677099628067012E+000	-2,1300905E-003
03/09/2025 15:24:25.9511	2,632354908180233E+000	-2,1109907E-003
03/09/2025 15:24:49.9511	2,575833884429926E+000	-2,1300905E-003
03/09/2025 15:25:13.9511	2,547274113941192E+000	-2,1109907E-003
03/09/2025 15:25:37.9511	2,512897930479049E+000	-2,1109907E-003
03/09/2025 15:26:01.9511	2,468200608253476E+000	-2,1491903E-003
03/09/2025 15:26:25.9511	2,439852279806136E+000	-2,1491903E-003
03/09/2025 15:26:49.9511	2,394050907087319E+000	-2,0918909E-003
03/09/2025 15:27:13.9511	2,372069141149520E+000	-2,1109907E-003
03/09/2025 15:27:37.9511	2,336521364402770E+000	-2,1873901E-003
03/09/2025 15:28:01.9511	2,299224877977370E+000	-2,1109907E-003
03/09/2025 15:28:25.9511	2,251377362585066E+000	-2,2255897E-003
03/09/2025 15:28:49.9511	2,227033539533615E+000	-2,1300905E-003
03/09/2025 15:29:13.9511	2,199797298622130E+000	-2,0918909E-003
03/09/2025 15:29:37.9511	2,162897561120987E+000	-2,1300905E-003
03/09/2025 15:30:01.9511	2,140083106470104E+000	-2,2064899E-003
03/09/2025 15:30:25.9511	2,100502066421505E+000	-2,0345915E-003
03/09/2025 15:30:49.9511	2,059523367547987E+000	-2,0536913E-003
03/09/2025 15:31:13.9511	2,024429113173483E+000	-2,1109907E-003
03/09/2025 15:31:37.9511	1,993654729914665E+000	-2,1873901E-003
03/09/2025 15:32:01.9511	1,973265226888657E+000	-2,1491903E-003
03/09/2025 15:32:25.9511	1,944684452581406E+000	-2,0918909E-003
03/09/2025 15:32:49.9511	1,915914374923702E+000	-2,1109907E-003
03/09/2025 15:33:13.9511	1,884520481228826E+000	-2,1491903E-003
03/09/2025 15:33:37.9511	1,857789707231522E+000	-2,2064899E-003
03/09/2025 15:34:01.9511	1,825666533398628E+000	-2,1300905E-003
03/09/2025 15:34:25.9511	1,822513163995744E+000	-2,0918909E-003
03/09/2025 15:34:49.9511	1,785630262351035E+000	-2,1682901E-003
03/09/2025 15:35:13.9511	1,755417765164367E+000	-2,1109907E-003
03/09/2025 15:35:37.9511	1,729783459186550E+000	-2,1491903E-003
03/09/2025 15:36:01.9511	1,705783401727672E+000	-2,1682901E-003
03/09/2025 15:36:25.9511	1,685620221519468E+000	-2,1491903E-003
03/09/2025 15:36:49.9511	1,652315055513384E+000	-2,0918909E-003
03/09/2025 15:37:13.9511	1,631807571148872E+000	-2,2064899E-003
03/09/2025 15:37:37.9511	1,602765709447858E+000	-2,1491903E-003
03/09/2025 15:38:01.9511	1,586006713080405E+000	-2,0727911E-003
03/09/2025 15:38:25.9511	1,544724924445152E+000	-2,1491903E-003
03/09/2025 15:38:49.9511	1,530993070411682E+000	-2,0918909E-003
03/09/2025 15:39:13.9511	1,514630808091163E+000	-2,0918909E-003
03/09/2025 15:39:37.9511	1,497321324801444E+000	-2,0727911E-003
03/09/2025 15:40:01.9511	1,468825982451435E+000	-2,0727911E-003
03/09/2025 15:40:25.9511	1,458776728296279E+000	-2,0536913E-003
03/09/2025 15:40:49.9511	1,434809299111366E+000	-2,1300905E-003
03/09/2025 15:41:13.9511	1,427854285883903E+000	-2,0918909E-003
03/09/2025 15:41:37.9511	1,395713973188396E+000	-2,0536913E-003
03/09/2025 15:42:01.9511	1,372544615793228E+000	-2,1682901E-003
03/09/2025 15:42:25.9510	1,340773783278465E+000	-2,1491903E-003
03/09/2025 15:42:49.9510	1,335925787401198E+000	-2,0727911E-003
03/09/2025 15:43:13.9510	1,307502418446539E+000	-2,1873901E-003
03/09/2025 15:43:37.9510	1,287272977113719E+000	-2,1873901E-003
03/09/2025 15:44:01.9510	1,270809505367279E+000	-2,0536913E-003
03/09/2025 15:44:25.9510	1,258316362667085E+000	-2,0727911E-003
03/09/2025 15:44:49.9510	1,232703758502005E+000	-2,2064899E-003
03/09/2025 15:45:13.9510	1,214602588295937E+000	-2,0727911E-003
03/09/2025 15:45:37.9510	1,204465110301971E+000	-2,0727911E-003
03/09/2025 15:46:01.9510	1,176470259094238E+000	-2,1682901E-003
03/09/2025 15:46:25.9510	1,152481800580024E+000	-2,2064899E-003
03/09/2025 15:46:49.9510	1,157665481781959E+000	-2,1682901E-003
03/09/2025 15:47:13.9510	1,131692078590392E+000	-2,1491903E-003
03/09/2025 15:47:37.9510	1,107827592110631E+000	-2,1109907E-003
03/09/2025 15:48:01.9510	1,094694109344482E+000	-2,1682901E-003
03/09/2025 15:48:25.9510	1,076355449652672E+000	-2,2064899E-003
03/09/2025 15:48:49.9510	1,067021036529539E+000	-2,1491903E-003
03/09/2025 15:49:13.9510	1,065988110017773E+000	-2,1109907E-003
03/09/2025 15:49:37.9510	1,046082729363441E+000	-2,1109907E-003
03/09/2025 15:50:01.9510	1,024637662136556E+000	-2,0727911E-003
03/09/2025 15:50:25.9510	9,980111685395241E-001	-2,0918909E-003
03/09/2025 15:50:49.9510	9,913337005496015E-001	-2,2064899E-003
03/09/2025 15:51:13.9510	9,767235126614562E-001	-2,1491903E-003
03/09/2025 15:51:37.9510	9,598630449295023E-001	-2,1682901E-003
03/09/2025 15:52:01.9510	9,556573953747716E-001	-2,1491903E-003
03/09/2025 15:52:25.9510	9,384771222472175E-001	-2,1873901E-003
03/09/2025 15:52:49.9510	9,186311212420435E-001	-2,1109907E-003
03/09/2025 15:53:13.9510	9,004801782011960E-001	-2,2064899E-003
03/09/2025 15:53:37.9510	9,006454335808753E-001	-2,1491903E-003
03/09/2025 15:54:01.9510	8,767809934377668E-001	-2,1491903E-003
03/09/2025 15:54:25.9510	8,711744141340247E-001	-2,2828891E-003
03/09/2025 15:54:49.9510	8,550952547073365E-001	-2,1491903E-003
03/09/2025 15:55:13.9510	8,434673872709268E-001	-2,0727911E-003
03/09/2025 15:55:37.9510	8,230219324707981E-001	-2,1109907E-003
03/09/2025 15:56:01.9510	8,148312939524640E-001	-1,9963919E-003
03/09/2025 15:56:25.9510	8,195704696297641E-001	-2,0536913E-003
03/09/2025 15:56:49.9510	8,002980863809581E-001	-2,1109907E-003
03/09/2025 15:57:13.9510	7,843753327488887E-001	-2,2255897E-003
03/09/2025 15:57:37.9510	7,994205503582945E-001	-2,0536913E-003
03/09/2025 15:58:01.9510	7,738565951466549E-001	-2,1109907E-003
03/09/2025 15:58:25.9510	7,554234776377680E-001	-2,2637893E-003
03/09/2025 15:58:49.9510	7,472915838122347E-001	-2,1109907E-003
03/09/2025 15:59:13.9510	7,288981009721756E-001	-2,0727911E-003
03/09/2025 15:59:37.9510	7,125784875273693E-001	-2,1491903E-003
03/09/2025 16:00:01.9510	7,055829138398171E-001	-2,3592883E-003
03/09/2025 16:00:25.9510	6,869808969497679E-001	-2,0918909E-003
03/09/2025 16:00:49.9510	7,032242433667182E-001	-2,1109907E-003
03/09/2025 16:01:13.9510	6,747799316287040E-001	-2,0918909E-003
03/09/2025 16:01:37.9510	6,643314580798130E-001	-2,1873901E-003
03/09/2025 16:02:01.9510	6,536836232066143E-001	-2,1682901E-003
03/09/2025 16:02:25.9510	6,636281045556067E-001	-2,1491903E-003
03/09/2025 16:02:49.9510	6,383645463109016E-001	-2,2255897E-003
03/09/2025 16:03:13.9510	6,350798652052876E-001	-2,1109907E-003
03/09/2025 16:03:37.9510	6,243823703885076E-001	-2,1300905E-003
03/09/2025 16:04:00.9032	6,079028233888893E-001	-2,1109907E-003