File: data/phase_2a/Sergey/1/8.3/01 eis/SN50_C5D1E2_mr2_0,1MFeCN6_in_1M_KCl_3306mL_symmetric_balanced_4_point_PEIS_10mHz_200kHz_10mV_C16.txt
time/s	freq/Hz	Re(Z)/Ohm	-Im(Z)/Ohm
26/08/2025 22:40:07.1445	1,9999814E+005	3,0607265E-001	-9,8948248E-002
26/08/2025 22:40:08.3075	1,0022640E+005	3,2970163E-001	-4,5573007E-002
26/08/2025 22:40:12.9705	5,0224539E+004	3,3227593E-001	-2,2172576E-002
26/08/2025 22:40:14.6925	2,5172580E+004	3,3350259E-001	-9,5712198E-003
26/08/2025 22:40:15.9945	1,2618766E+004	3,3484095E-001	-2,9663467E-003
26/08/2025 22:40:17.3143	6,3238188E+003	3,3622548E-001	1,1175015E-004
26/08/2025 22:40:18.9420	3,1669595E+003	3,3736199E-001	1,8246187E-003
26/08/2025 22:40:20.3429	1,5884750E+003	3,3881679E-001	2,7985377E-003
26/08/2025 22:40:21.7427	7,9525409E+002	3,4042478E-001	3,4554352E-003
26/08/2025 22:40:23.1435	3,9859698E+002	3,4206912E-001	4,2457813E-003
26/08/2025 22:40:24.5420	1,9980818E+002	3,4422311E-001	4,9681775E-003
26/08/2025 22:40:25.9435	1,0016024E+002	3,4643710E-001	5,7596089E-003
26/08/2025 22:40:27.3589	5,0208866E+001	3,4907547E-001	6,8289046E-003
26/08/2025 22:40:28.7397	2,5136747E+001	3,5225010E-001	8,0043282E-003
26/08/2025 22:40:30.1989	1,2600809E+001	3,5593390E-001	9,3004378E-003
26/08/2025 22:40:31.8912	6,3105812E+000	3,5983172E-001	1,0836438E-002
26/08/2025 22:40:33.6417	3,1655185E+000	3,6450177E-001	1,2898878E-002
26/08/2025 22:40:37.6601	1,5846856E+000	3,6869347E-001	1,5552817E-002
26/08/2025 22:40:44.1892	7,9443753E-001	3,7399632E-001	2,1946050E-002
26/08/2025 22:40:57.0914	3,9867833E-001	3,8192132E-001	3,3399254E-002
26/08/2025 22:41:22.7264	1,9980818E-001	3,9625669E-001	5,1042691E-002
26/08/2025 22:42:13.7668	1,0013975E-001	4,1996461E-001	7,3594399E-002
26/08/2025 22:43:55.5399	5,0154075E-002	4,5555294E-001	1,0164552E-001
26/08/2025 22:47:18.5524	2,5144994E-002	5,1526260E-001	1,3424744E-001
26/08/2025 22:54:03.6407	1,2576789E-002	5,9725839E-001	1,4329796E-001
26/08/2025 22:57:34.9315	1,5885727E+005	3,1799045E-001	-7,4340798E-002
26/08/2025 22:57:37.3535	7,9609563E+004	3,3033040E-001	-3,5578646E-002
26/08/2025 22:57:41.3155	3,9897566E+004	3,3177850E-001	-1,6915096E-002
26/08/2025 22:57:42.7575	1,9995176E+004	3,3270493E-001	-6,9304248E-003
26/08/2025 22:57:44.0595	1,0020785E+004	3,3423167E-001	-1,7291844E-003
26/08/2025 22:57:45.6367	5,0216069E+003	3,3539715E-001	8,6493988E-004
26/08/2025 22:57:47.0377	2,5158047E+003	3,3684576E-001	2,2477829E-003
26/08/2025 22:57:48.4387	1,2604036E+003	3,3830133E-001	3,0129079E-003
26/08/2025 22:57:49.8402	6,3181964E+002	3,3991480E-001	3,8193259E-003
26/08/2025 22:57:51.2397	3,1672299E+002	3,4184092E-001	4,3988540E-003
26/08/2025 22:57:52.6425	1,5862943E+002	3,4384224E-001	5,2495962E-003
26/08/2025 22:57:54.0450	7,9516548E+001	3,4621358E-001	6,1677950E-003
26/08/2025 22:57:55.4575	3,9859695E+001	3,4894505E-001	7,1164272E-003
26/08/2025 22:57:56.8370	1,9980818E+001	3,5209501E-001	8,3061913E-003
26/08/2025 22:57:58.2935	1,0016025E+001	3,5603586E-001	9,6568586E-003
26/08/2025 22:57:59.7172	5,0144420E+000	3,6028332E-001	1,1106293E-002
26/08/2025 22:58:01.8767	2,5136747E+000	3,6489716E-001	1,3510354E-002
26/08/2025 22:58:06.7240	1,2596742E+000	3,6873052E-001	1,8246839E-002
26/08/2025 22:58:14.9098	6,3126212E-001	3,7473089E-001	2,5711229E-002
26/08/2025 22:58:31.1272	3,1619310E-001	3,8520184E-001	3,8595885E-002
26/08/2025 22:59:03.3737	1,5846856E-001	4,0138531E-001	5,6821838E-002
26/08/2025 23:00:07.6136	7,9421178E-002	4,2777777E-001	8,2830861E-002
26/08/2025 23:02:15.7261	3,9804459E-002	4,7164661E-001	1,1338899E-001
26/08/2025 23:06:31.2957	1,9949391E-002	5,3867429E-001	1,3849071E-001
26/08/2025 23:15:01.0156	1,0009170E-002	6,2332588E-001	1,3589932E-001
26/08/2025 23:15:02.7196	1,2618765E+005	3,2307950E-001	-5,5876222E-002
26/08/2025 23:15:06.4016	6,3233004E+004	3,2910690E-001	-2,7600367E-002
26/08/2025 23:15:09.2446	3,1686090E+004	3,3023626E-001	-1,2665051E-002
26/08/2025 23:15:10.5466	1,5884798E+004	3,3132797E-001	-4,6650171E-003
26/08/2025 23:15:11.9059	7,9597607E+003	3,3270484E-001	-5,6414335E-004
26/08/2025 23:15:13.4250	3,9861731E+003	3,3396155E-001	1,3315763E-003
26/08/2025 23:15:15.0500	1,9980818E+003	3,3538583E-001	2,5389935E-003
26/08/2025 23:15:16.4505	1,0016024E+003	3,3673877E-001	3,1974674E-003
26/08/2025 23:15:17.8520	5,0208865E+002	3,3851561E-001	4,1728765E-003
26/08/2025 23:15:19.2495	2,5169135E+002	3,4037635E-001	4,6745413E-003
26/08/2025 23:15:20.6523	1,2600809E+002	3,4242967E-001	5,5544218E-003
26/08/2025 23:15:22.0687	6,3160763E+001	3,4508944E-001	6,4810556E-003
26/08/2025 23:15:23.4483	3,1672298E+001	3,4790471E-001	7,3377038E-003
26/08/2025 23:15:24.8260	1,5857577E+001	3,5133672E-001	8,7751979E-003
26/08/2025 23:15:26.4143	7,9557004E+000	3,5515052E-001	1,0029129E-002
26/08/2025 23:15:27.8368	3,9859698E+000	3,5962906E-001	1,1626614E-002
26/08/2025 23:15:30.5158	1,9970603E+000	3,6374965E-001	1,4368569E-002
26/08/2025 23:15:36.4092	1,0000639E+000	3,6808404E-001	1,8657712E-002
26/08/2025 23:15:46.6853	5,0118679E-001	3,7486410E-001	2,8951235E-002
26/08/2025 23:16:07.0744	2,5117347E-001	3,8710234E-001	4,4192534E-002
26/08/2025 23:16:47.6463	1,2590654E-001	4,0678090E-001	6,4274944E-002
26/08/2025 23:18:08.5012	6,3101739E-002	4,3670171E-001	9,1922604E-002
26/08/2025 23:20:49.8358	3,1592205E-002	4,8691946E-001	1,2440026E-001
26/08/2025 23:26:11.3910	1,5860692E-002	5,6073970E-001	1,4216253E-001
26/08/2025 23:32:29.3976	1,9999814E+005	3,0103227E-001	-9,3837850E-002
26/08/2025 23:32:30.5596	1,0022640E+005	3,2446441E-001	-4,4927891E-002
26/08/2025 23:32:35.6416	5,0224539E+004	3,2664081E-001	-2,2009494E-002
26/08/2025 23:32:37.2236	2,5172580E+004	3,2777664E-001	-9,6864644E-003
26/08/2025 23:32:38.5256	1,2618766E+004	3,2884437E-001	-3,0483929E-003
26/08/2025 23:32:40.0325	6,3238188E+003	3,3036104E-001	1,6812590E-004
26/08/2025 23:32:41.6601	3,1669595E+003	3,3166125E-001	1,6071661E-003
26/08/2025 23:32:43.0611	1,5884750E+003	3,3289340E-001	2,6670191E-003
26/08/2025 23:32:44.4608	7,9525409E+002	3,3438021E-001	3,3848621E-003
26/08/2025 23:32:45.8616	3,9859698E+002	3,3610716E-001	3,9345883E-003
26/08/2025 23:32:47.2601	1,9980818E+002	3,3804557E-001	4,7004395E-003
26/08/2025 23:32:48.6616	1,0016024E+002	3,4023818E-001	5,5094827E-003
26/08/2025 23:32:50.0771	5,0208866E+001	3,4288120E-001	6,5985713E-003
26/08/2025 23:32:51.4558	2,5136747E+001	3,4591296E-001	7,6679480E-003
26/08/2025 23:32:52.9150	1,2600809E+001	3,4942457E-001	9,0422183E-003
26/08/2025 23:32:54.3353	6,3105812E+000	3,5329738E-001	1,0281974E-002
26/08/2025 23:32:56.0859	3,1655185E+000	3,5754374E-001	1,2035691E-002
26/08/2025 23:32:59.4233	1,5846856E+000	3,6190486E-001	1,5394779E-002
26/08/2025 23:33:06.7942	7,9443753E-001	3,6668739E-001	2,1699982E-002
26/08/2025 23:33:19.6967	3,9867833E-001	3,7485859E-001	3,3275489E-002
26/08/2025 23:33:45.3300	1,9980818E-001	3,8925546E-001	4,9575802E-002
26/08/2025 23:34:36.3692	1,0013975E-001	4,1100928E-001	7,1779586E-002
26/08/2025 23:36:18.1444	5,0154075E-002	4,4687021E-001	1,0161190E-001
26/08/2025 23:39:41.1600	2,5144994E-002	5,0582016E-001	1,3151273E-001
26/08/2025 23:46:26.2464	1,2576789E-002	5,8521092E-001	1,4123699E-001
26/08/2025 23:49:57.5367	1,5885727E+005	3,1251809E-001	-6,9195598E-002
26/08/2025 23:49:59.9587	7,9609563E+004	3,2294095E-001	-3,5360035E-002
26/08/2025 23:50:04.0617	3,9897566E+004	3,2446170E-001	-1,6941972E-002
26/08/2025 23:50:05.3637	1,9995176E+004	3,2509482E-001	-7,0250626E-003
26/08/2025 23:50:06.6657	1,0020785E+004	3,2651380E-001	-1,7270508E-003
26/08/2025 23:50:08.2079	5,0216069E+003	3,2754910E-001	6,7303277E-004
26/08/2025 23:50:09.8329	2,5158047E+003	3,2899654E-001	2,0945526E-003
26/08/2025 23:50:11.2339	1,2604036E+003	3,3047986E-001	2,9781037E-003
26/08/2025 23:50:12.6354	6,3181964E+002	3,3198106E-001	3,7099561E-003
26/08/2025 23:50:14.0348	3,1672299E+002	3,3373892E-001	4,3616346E-003
26/08/2025 23:50:15.4377	1,5862943E+002	3,3577919E-001	4,9892571E-003
26/08/2025 23:50:16.8402	7,9516548E+001	3,3804467E-001	5,7215118E-003
26/08/2025 23:50:18.2517	3,9859695E+001	3,4057298E-001	7,0109759E-003
26/08/2025 23:50:19.6311	1,9980818E+001	3,4372970E-001	8,1103742E-003
26/08/2025 23:50:21.0886	1,0016025E+001	3,4733829E-001	9,4187241E-003
26/08/2025 23:50:22.5124	5,0144420E+000	3,5121372E-001	1,0792674E-002
26/08/2025 23:50:24.6719	2,5136747E+000	3,5601982E-001	1,3089656E-002
26/08/2025 23:50:29.6831	1,2596742E+000	3,5921884E-001	1,7129423E-002
26/08/2025 23:50:37.8668	6,3126212E-001	3,6566144E-001	2,4948645E-002
26/08/2025 23:50:54.0862	3,1619310E-001	3,7568381E-001	3,7595332E-002
26/08/2025 23:51:26.3337	1,5846856E-001	3,9142859E-001	5,5463251E-002
26/08/2025 23:52:30.5739	7,9421178E-002	4,1676825E-001	8,1080087E-002