File: data/phase_2a/Sergey/2/20.7/01 eis/SN50_C6aD1E1_hr 0,1MFeCN6_in_1M_KCl_3306mL_symmetric_balanced_4_point_PEIS_10mHz_200kHz_10mV_C16.txt
time/s	freq/Hz	Re(Z)/Ohm	-Im(Z)/Ohm
31/08/2025 08:44:40.9845	1,9999814E+005	2,8225845E-001	-3,7310056E-002
31/08/2025 08:44:42.1485	1,0022640E+005	3,0609685E-001	-1,4210165E-002
31/08/2025 08:44:46.6725	5,0224539E+004	3,0844665E-001	-6,4577954E-003
31/08/2025 08:44:48.2565	2,5172580E+004	3,0923858E-001	-2,5832667E-003
31/08/2025 08:44:49.5585	1,2618766E+004	3,0979413E-001	-1,2872084E-004
31/08/2025 08:44:51.0663	6,3238188E+003	3,1047440E-001	1,2188737E-003
31/08/2025 08:44:52.6939	3,1669595E+003	3,1153214E-001	2,0462885E-003
31/08/2025 08:44:54.0950	1,5884750E+003	3,1273183E-001	2,6660995E-003
31/08/2025 08:44:55.4947	7,9525409E+002	3,1382251E-001	3,2084084E-003
31/08/2025 08:44:56.8955	3,9859698E+002	3,1522414E-001	3,8558559E-003
31/08/2025 08:44:58.2940	1,9980818E+002	3,1709921E-001	4,3837223E-003
31/08/2025 08:44:59.6964	1,0016024E+002	3,1932777E-001	5,3931656E-003
31/08/2025 08:45:01.1119	5,0208866E+001	3,2161075E-001	6,2477938E-003
31/08/2025 08:45:02.4907	2,5136747E+001	3,2474861E-001	7,3448471E-003
31/08/2025 08:45:03.9489	1,2600809E+001	3,2791188E-001	8,4910346E-003
31/08/2025 08:45:05.3682	6,3105812E+000	3,3159614E-001	9,3174912E-003
31/08/2025 08:45:07.1187	3,1655185E+000	3,3493301E-001	1,0244101E-002
31/08/2025 08:45:10.4561	1,5846856E+000	3,3847114E-001	1,3032313E-002
31/08/2025 08:45:17.8281	7,9443753E-001	3,4285894E-001	1,9428320E-002
31/08/2025 08:45:30.7307	3,9867833E-001	3,5009846E-001	2,9793506E-002
31/08/2025 08:45:56.3637	1,9980818E-001	3,6350593E-001	4,5670688E-002
31/08/2025 08:46:47.4039	1,0013975E-001	3,8768339E-001	6,5830879E-002
31/08/2025 08:48:29.1771	5,0154075E-002	4,2793453E-001	8,1985041E-002
31/08/2025 08:51:52.1927	2,5144994E-002	4,8153260E-001	8,0231108E-002
31/08/2025 08:58:37.2810	1,2576789E-002	5,1771253E-001	5,2446239E-002
31/08/2025 09:02:08.5705	1,5885727E+005	2,9524368E-001	-2,5777776E-002
31/08/2025 09:02:10.9935	7,9609563E+004	3,0705857E-001	-1,0478434E-002
31/08/2025 09:02:14.8155	3,9897566E+004	3,0838314E-001	-4,7854432E-003
31/08/2025 09:02:16.1175	1,9995176E+004	3,0897072E-001	-1,4967150E-003
31/08/2025 09:02:17.4195	1,0020785E+004	3,0961490E-001	2,8147711E-004
31/08/2025 09:02:18.9618	5,0216069E+003	3,1050804E-001	1,6091035E-003
31/08/2025 09:02:20.5847	2,5158047E+003	3,1139165E-001	2,1534339E-003
31/08/2025 09:02:21.9848	1,2604036E+003	3,1241664E-001	2,6371253E-003
31/08/2025 09:02:23.3862	6,3181964E+002	3,1388471E-001	3,4064788E-003
31/08/2025 09:02:24.7857	3,1672299E+002	3,1535679E-001	3,8664129E-003
31/08/2025 09:02:26.1886	1,5862943E+002	3,1715491E-001	4,7263266E-003
31/08/2025 09:02:27.5910	7,9516548E+001	3,1954804E-001	5,5803675E-003
31/08/2025 09:02:29.0055	3,9859695E+001	3,2194385E-001	6,5217395E-003
31/08/2025 09:02:30.3850	1,9980818E+001	3,2504022E-001	7,6317764E-003
31/08/2025 09:02:31.8415	1,0016025E+001	3,2879952E-001	8,6183120E-003
31/08/2025 09:02:33.2652	5,0144420E+000	3,3262461E-001	9,4359377E-003
31/08/2025 09:02:35.4248	2,5136747E+000	3,3581242E-001	1,0975805E-002
31/08/2025 09:02:40.4361	1,2596742E+000	3,3907697E-001	1,4846904E-002
31/08/2025 09:02:48.6220	6,3126212E-001	3,4432498E-001	2,2747315E-002
31/08/2025 09:03:04.8399	3,1619310E-001	3,5378256E-001	3,4679573E-002
31/08/2025 09:03:37.0884	1,5846856E-001	3,6976540E-001	5,1242836E-002
31/08/2025 09:04:41.3285	7,9421178E-002	3,9842644E-001	7,3173463E-002
31/08/2025 09:06:49.4409	3,9804459E-002	4,4470477E-001	8,5481763E-002
31/08/2025 09:11:05.0083	1,9949391E-002	4,9717623E-001	7,2076365E-002
31/08/2025 09:19:34.7285	1,0009170E-002	5,2116758E-001	4,4386610E-002
31/08/2025 09:19:36.4326	1,2618765E+005	3,0138072E-001	-1,8759141E-002
31/08/2025 09:19:40.1146	6,3233004E+004	3,0716681E-001	-7,9767760E-003
31/08/2025 09:19:42.8166	3,1686090E+004	3,0814037E-001	-3,4655696E-003
31/08/2025 09:19:44.1196	1,5884798E+004	3,0867547E-001	-7,8151666E-004
31/08/2025 09:19:45.4798	7,9597607E+003	3,0908069E-001	8,7091437E-004
31/08/2025 09:19:47.2210	3,9861731E+003	3,1009817E-001	1,7190377E-003
31/08/2025 09:19:48.6220	1,9980818E+003	3,1118587E-001	2,4025443E-003
31/08/2025 09:19:50.0215	1,0016024E+003	3,1245860E-001	2,9134343E-003
31/08/2025 09:19:51.4220	5,0208865E+002	3,1377548E-001	3,5434819E-003
31/08/2025 09:19:52.8195	2,5169135E+002	3,1538203E-001	4,4120639E-003
31/08/2025 09:19:54.2222	1,2600809E+002	3,1751248E-001	4,9527339E-003
31/08/2025 09:19:55.6397	6,3160763E+001	3,1958720E-001	5,9010140E-003
31/08/2025 09:19:57.0193	3,1672298E+001	3,2230857E-001	6,9689043E-003
31/08/2025 09:19:58.3960	1,5857577E+001	3,2562712E-001	7,7884644E-003
31/08/2025 09:19:59.9833	7,9557004E+000	3,2962725E-001	8,8667898E-003
31/08/2025 09:20:01.4058	3,9859698E+000	3,3307549E-001	9,7079035E-003
31/08/2025 09:20:04.0848	1,9970603E+000	3,3630583E-001	1,1714087E-002
31/08/2025 09:20:10.1413	1,0000639E+000	3,3999363E-001	1,6823266E-002
31/08/2025 09:20:20.4194	5,0118679E-001	3,4603649E-001	2,5758671E-002
31/08/2025 09:20:40.8084	2,5117347E-001	3,5695165E-001	4,0054418E-002
31/08/2025 09:21:21.3804	1,2590654E-001	3,7725231E-001	5,8552187E-002
31/08/2025 09:22:42.2363	6,3101739E-002	4,1207573E-001	7,7847734E-002
31/08/2025 09:25:23.5691	3,1592205E-002	4,6211502E-001	8,5084416E-002
31/08/2025 09:30:45.1255	1,5860692E-002	5,0751507E-001	6,2200278E-002
31/08/2025 09:37:03.1326	1,9999814E+005	2,8199816E-001	-2,7980378E-002
31/08/2025 09:37:04.2956	1,0022640E+005	3,0431899E-001	-1,2158269E-002
31/08/2025 09:37:09.2386	5,0224539E+004	3,0692250E-001	-6,1474941E-003
31/08/2025 09:37:10.8216	2,5172580E+004	3,0773649E-001	-2,1834758E-003
31/08/2025 09:37:12.1236	1,2618766E+004	3,0810186E-001	-5,4436383E-005
31/08/2025 09:37:13.6314	6,3238188E+003	3,0887958E-001	1,1314137E-003
31/08/2025 09:37:15.2591	3,1669595E+003	3,0998379E-001	1,9927220E-003
31/08/2025 09:37:16.6581	1,5884750E+003	3,1085047E-001	2,6756302E-003
31/08/2025 09:37:18.0578	7,9525409E+002	3,1237116E-001	3,3174406E-003
31/08/2025 09:37:19.4576	3,9859698E+002	3,1372631E-001	3,7891236E-003
31/08/2025 09:37:20.8551	1,9980818E+002	3,1530985E-001	4,4716299E-003
31/08/2025 09:37:22.2566	1,0016024E+002	3,1745577E-001	5,3372746E-003
31/08/2025 09:37:23.6701	5,0208866E+001	3,1992707E-001	6,1520622E-003
31/08/2025 09:37:25.0488	2,5136747E+001	3,2294708E-001	7,1889628E-003
31/08/2025 09:37:26.5070	1,2600809E+001	3,2632190E-001	8,3050923E-003
31/08/2025 09:37:27.9273	6,3105812E+000	3,2998663E-001	8,9236768E-003
31/08/2025 09:37:29.6779	3,1655185E+000	3,3353856E-001	9,9951811E-003
31/08/2025 09:37:33.0142	1,5846856E+000	3,3658946E-001	1,3212776E-002
31/08/2025 09:37:40.3873	7,9443753E-001	3,4096494E-001	1,9644596E-002
31/08/2025 09:37:53.2898	3,9867833E-001	3,4866405E-001	3,0049754E-002
31/08/2025 09:38:18.9229	1,9980818E-001	3,6188367E-001	4,5146134E-002
31/08/2025 09:39:09.9622	1,0013975E-001	3,8503692E-001	6,5772295E-002
31/08/2025 09:40:51.7364	5,0154075E-002	4,2664909E-001	8,2315691E-002
31/08/2025 09:44:14.7520	2,5144994E-002	4,7970158E-001	8,0217056E-002
31/08/2025 09:50:59.8402	1,2576789E-002	5,1446563E-001	5,2235831E-002
31/08/2025 09:54:31.1297	1,5885727E+005	2,9317096E-001	-2,6066083E-002
31/08/2025 09:54:33.5517	7,9609563E+004	3,0514091E-001	-1,0481269E-002
31/08/2025 09:54:37.5137	3,9897566E+004	3,0672288E-001	-4,7844183E-003
31/08/2025 09:54:38.8157	1,9995176E+004	3,0720401E-001	-1,5023112E-003
31/08/2025 09:54:40.1177	1,0020785E+004	3,0762744E-001	4,5881807E-004
31/08/2025 09:54:41.6609	5,0216069E+003	3,0844665E-001	1,4124446E-003
31/08/2025 09:54:43.2849	2,5158047E+003	3,0930349E-001	2,0322260E-003
31/08/2025 09:54:44.6859	1,2604036E+003	3,1048948E-001	2,7560636E-003
31/08/2025 09:54:46.0864	6,3181964E+002	3,1182662E-001	3,4876536E-003
31/08/2025 09:54:47.4859	3,1672299E+002	3,1338596E-001	4,1492842E-003
31/08/2025 09:54:48.8887	1,5862943E+002	3,1541646E-001	4,8070601E-003
31/08/2025 09:54:50.2912	7,9516548E+001	3,1742898E-001	5,6380113E-003
31/08/2025 09:54:51.7037	3,9859695E+001	3,2007506E-001	6,4449385E-003
31/08/2025 09:54:53.0821	1,9980818E+001	3,2309201E-001	7,6082977E-003
31/08/2025 09:54:54.5386	1,0016025E+001	3,2686612E-001	8,7516196E-003
31/08/2025 09:54:55.9624	5,0144420E+000	3,3044419E-001	9,3801720E-003
31/08/2025 09:54:58.1219	2,5136747E+000	3,3380526E-001	1,0886800E-002
31/08/2025 09:55:03.1331	1,2596742E+000	3,3709231E-001	1,4822344E-002
31/08/2025 09:55:11.3181	6,3126212E-001	3,4233096E-001	2,2406651E-002
31/08/2025 09:55:27.5353	3,1619310E-001	3,5134467E-001	3,4390513E-002
31/08/2025 09:55:59.7848	1,5846856E-001	3,6755946E-001	5,1806901E-002
31/08/2025 09:57:04.0258	7,9421178E-002	3,9706096E-001	7,2865941E-002
31/08/2025 09:59:12.1393	3,9804459E-002	4,4231433E-001	8,4751762E-002
31/08/2025 10:03:27.7086	1,9949391E-002	4,9444708E-001	7,2122529E-002
31/08/2025 10:11:57.4286	1,0009170E-002	5,1811689E-001	4,4008590E-002
31/08/2025 10:11:59.1327	1,2618765E+005	2,9867351E-001	-1,6321870E-002
31/08/2025 10:12:02.8147	6,3233004E+004	3,0505469E-001	-7,8844409E-003
31/08/2025 10:12:05.5187	3,1686090E+004	3,0614862E-001	-3,3996648E-003
31/08/2025 10:12:06.8217	1,5884798E+004	3,0643681E-001	-6,2818185E-004
31/08/2025 10:12:08.1820	7,9597607E+003	3,0727094E-001	7,7967998E-004
31/08/2025 10:12:09.9252	3,9861731E+003	3,0810452E-001	1,6757093E-003
31/08/2025 10:12:11.3252	1,9980818E+003	3,0929276E-001	2,4350244E-003
31/08/2025 10:12:12.7247	1,0016024E+003	3,1031549E-001	2,9425633E-003
31/08/2025 10:12:14.1252	5,0208865E+002	3,1185403E-001	3,5339992E-003
31/08/2025 10:12:15.5227	2,5169135E+002	3,1324416E-001	4,2502978E-003
31/08/2025 10:12:16.9254	1,2600809E+002	3,1525898E-001	5,0532022E-003
31/08/2025 10:12:18.3418	6,3160763E+001	3,1759816E-001	5,8723642E-003
31/08/2025 10:12:19.7215	3,1672298E+001	3,2032055E-001	6,9297445E-003
31/08/2025 10:12:21.0992	1,5857577E+001	3,2351717E-001	7,8022666E-003
31/08/2025 10:12:22.6854	7,9557004E+000	3,2742235E-001	8,8927140E-003
31/08/2025 10:12:24.1079	3,9859698E+000	3,3104715E-001	9,6823750E-003
31/08/2025 10:12:26.7869	1,9970603E+000	3,3401361E-001	1,1928642E-002
31/08/2025 10:12:32.8434	1,0000639E+000	3,3753470E-001	1,6820790E-002
31/08/2025 10:12:35.5254	7,9443753E-001	3,3942977E-001	1,9301835E-002