File: data/phase_2a/Sergey/1/20.7/02 polarisation/SN50_C5D2E1_hr_0,1MFeCN6_in_1M_KCl_3306mL_symmetric_balanced_4_point_PEIS_10mHz_200kHz_10mV_02_CP_C16.txt
time/s	I/mA	<Ewe/V>
27/08/2025 09:36:17.0800	1,6250411E-002	-5,7684928E-003
27/08/2025 09:36:28.5800	7,9776440E-003	-5,7681384E-003
27/08/2025 09:36:40.0800	7,9776440E-003	-5,7607656E-003
27/08/2025 09:36:51.5800	6,7049102E-003	-5,7648532E-003
27/08/2025 09:37:03.0800	1,2432210E-002	-5,7604606E-003
27/08/2025 09:37:14.5800	4,1594426E-003	-5,7595815E-003
27/08/2025 09:37:26.0800	7,3412773E-003	-5,7545775E-003
27/08/2025 09:37:37.5800	1,2432210E-002	-5,7640127E-003
27/08/2025 09:37:49.0800	6,7049102E-003	-5,7572131E-003
27/08/2025 09:38:00.5800	7,9776440E-003	-5,7679852E-003
27/08/2025 09:38:12.0800	1,3068578E-002	-5,7588178E-003
27/08/2025 09:38:23.5800	1,2432210E-002	-5,7604983E-003
27/08/2025 09:38:35.0800	9,8867435E-003	-5,7612625E-003
27/08/2025 09:38:46.5800	5,4321769E-003	-5,7627140E-003
27/08/2025 09:38:58.0800	7,9776440E-003	-5,7603838E-003
27/08/2025 09:39:09.5800	9,2503773E-003	-5,7634395E-003
27/08/2025 09:39:21.0800	6,7049102E-003	-5,7617589E-003
27/08/2025 09:39:32.5800	9,8867435E-003	-5,7576331E-003
27/08/2025 09:39:44.0800	1,0523110E-002	-5,7549598E-003
27/08/2025 09:39:55.5800	3,5230771E-003	-5,7583209E-003
27/08/2025 09:40:07.0800	9,7761012E-004	-5,7496876E-003
27/08/2025 09:40:18.5800	1,2432210E-002	-5,7621025E-003
27/08/2025 09:40:30.0800	1,1795843E-002	-5,7562580E-003
27/08/2025 09:40:41.5800	7,3412773E-003	-5,7644327E-003
27/08/2025 09:40:53.0800	1,4341311E-002	-5,7595051E-003
27/08/2025 09:41:04.5800	1,1795843E-002	-5,7681384E-003
27/08/2025 09:41:16.0800	7,9776440E-003	-5,7527055E-003
27/08/2025 09:41:27.5800	2,8867100E-003	-5,7640891E-003
27/08/2025 09:41:39.0800	5,4321769E-003	-5,7621407E-003
27/08/2025 09:41:50.5800	9,8867435E-003	-5,7605747E-003
27/08/2025 09:42:02.0800	9,2503773E-003	-5,7572513E-003
27/08/2025 09:42:13.5800	1,1795843E-002	-5,7645859E-003
27/08/2025 09:42:25.0800	1,4341311E-002	-5,7699718E-003
27/08/2025 09:42:36.5800	1,4977678E-002	-5,7605365E-003
27/08/2025 09:42:48.0800	6,7049102E-003	-5,7696663E-003
27/08/2025 09:42:59.5800	7,9776440E-003	-5,7585500E-003
27/08/2025 09:43:11.0800	6,7049102E-003	-5,7654642E-003
27/08/2025 09:43:22.5800	6,7049102E-003	-5,7644709E-003
27/08/2025 09:43:34.0800	1,6139771E-003	-5,7694754E-003
27/08/2025 09:43:45.5800	7,3412773E-003	-5,7593905E-003
27/08/2025 09:43:57.0800	6,0685435E-003	-5,7615680E-003
27/08/2025 09:44:08.5800	6,7049102E-003	-5,7637836E-003
27/08/2025 09:44:20.0800	9,8867435E-003	-5,7671834E-003
27/08/2025 09:44:31.5800	9,2503773E-003	-5,7645859E-003
27/08/2025 09:44:43.0800	1,0523110E-002	-5,7672597E-003
27/08/2025 09:44:54.5800	6,7049102E-003	-5,7674125E-003
27/08/2025 09:45:06.0800	7,3412773E-003	-5,7648532E-003
27/08/2025 09:45:17.5800	1,1795843E-002	-5,7596196E-003
27/08/2025 09:45:29.0800	7,9776440E-003	-5,7683294E-003
27/08/2025 09:45:40.5800	9,2503773E-003	-5,7647005E-003
27/08/2025 09:45:52.0800	7,3412773E-003	-5,7728752E-003
27/08/2025 09:46:03.5800	9,2503773E-003	-5,7640509E-003
27/08/2025 09:46:15.0800	6,7049102E-003	-5,7689785E-003
27/08/2025 09:46:26.5326	2,6513922E+001	8,0248723E-003
27/08/2025 09:46:38.0326	2,6508196E+001	8,3794035E-003
27/08/2025 09:46:49.5326	2,6506285E+001	8,4354421E-003
27/08/2025 09:47:01.0326	2,6507559E+001	8,5229957E-003
27/08/2025 09:47:12.5326	2,6507559E+001	8,6113131E-003
27/08/2025 09:47:24.0326	2,6511377E+001	8,7117013E-003
27/08/2025 09:47:35.5326	2,6512012E+001	8,8075064E-003
27/08/2025 09:47:47.0326	2,6512651E+001	8,9043044E-003
27/08/2025 09:47:58.5326	2,6505014E+001	9,0066036E-003
27/08/2025 09:48:10.0326	2,6509470E+001	9,0905661E-003
27/08/2025 09:48:21.4328	9,8867435E-003	-3,6263613E-003
27/08/2025 09:48:32.9328	-1,5678566E-003	-4,7974088E-003
27/08/2025 09:48:44.4328	1,5614044E-002	-4,7925957E-003
27/08/2025 09:48:55.9328	7,9776440E-003	-4,7772015E-003
27/08/2025 09:49:07.4328	7,9776440E-003	-4,7727702E-003
27/08/2025 09:49:18.9328	1,2432210E-002	-4,7778892E-003
27/08/2025 09:49:30.4328	4,1594426E-003	-4,7753681E-003
27/08/2025 09:49:41.9328	7,9776440E-003	-4,7759791E-003
27/08/2025 09:49:53.4328	1,1159477E-002	-4,7785006E-003
27/08/2025 09:50:04.9328	1,3068578E-002	-4,7728084E-003
27/08/2025 09:50:16.4328	9,2503773E-003	-4,7758264E-003
27/08/2025 09:50:27.8330	-2,6476965E+001	-1,8638398E-002
27/08/2025 09:50:39.3330	-2,6482054E+001	-1,8880928E-002
27/08/2025 09:50:50.8330	-2,6480783E+001	-1,8968061E-002
27/08/2025 09:51:02.3330	-2,6485235E+001	-1,9050611E-002
27/08/2025 09:51:13.8330	-2,6483328E+001	-1,9156424E-002
27/08/2025 09:51:25.3330	-2,6482054E+001	-1,9231409E-002
27/08/2025 09:51:36.8330	-2,6486509E+001	-1,9327711E-002
27/08/2025 09:51:48.3330	-2,6491598E+001	-1,9415569E-002
27/08/2025 09:51:59.8330	-2,6485235E+001	-1,9527763E-002
27/08/2025 09:52:11.3330	-2,6484600E+001	-1,9618258E-002
27/08/2025 09:52:22.7332	5,3019230E+001	1,9838262E-002
27/08/2025 09:52:34.2332	5,3012230E+001	2,2429230E-002
27/08/2025 09:52:45.7332	5,3010323E+001	2,2576567E-002
27/08/2025 09:52:57.2332	5,3014778E+001	2,2725239E-002
27/08/2025 09:53:08.7332	5,3017960E+001	2,2927390E-002
27/08/2025 09:53:20.2332	5,3015415E+001	2,3123700E-002
27/08/2025 09:53:31.7332	5,3016685E+001	2,3309769E-002
27/08/2025 09:53:43.2332	5,3012230E+001	2,3504281E-002
27/08/2025 09:53:54.7332	5,3016685E+001	2,3676679E-002
27/08/2025 09:54:06.2332	5,3016052E+001	2,3865459E-002
27/08/2025 09:54:17.6336	3,5230771E-003	3,6175891E-003
27/08/2025 09:54:29.1336	4,1594426E-003	-3,6536737E-003
27/08/2025 09:54:40.6336	1,0523110E-002	-3,8193455E-003
27/08/2025 09:54:52.1336	6,7049102E-003	-3,7775552E-003
27/08/2025 09:55:03.6336	6,0685435E-003	-3,7648347E-003
27/08/2025 09:55:15.1336	7,3412773E-003	-3,7728567E-003
27/08/2025 09:55:26.6336	6,7049102E-003	-3,7659807E-003
27/08/2025 09:55:38.1336	6,7049102E-003	-3,7719782E-003
27/08/2025 09:55:49.6336	6,0685435E-003	-3,7637651E-003
27/08/2025 09:56:01.1336	1,2432210E-002	-3,7773643E-003
27/08/2025 09:56:12.6336	7,9776440E-003	-3,7717107E-003
27/08/2025 09:56:24.0338	-5,2978451E+001	-3,0692829E-002
27/08/2025 09:56:35.5338	-5,2973995E+001	-3,2008041E-002
27/08/2025 09:56:47.0338	-5,2979088E+001	-3,2137081E-002
27/08/2025 09:56:58.5338	-5,2978451E+001	-3,2306917E-002
27/08/2025 09:57:10.0338	-5,2979088E+001	-3,2482293E-002
27/08/2025 09:57:21.5338	-5,2977814E+001	-3,2672565E-002
27/08/2025 09:57:33.0338	-5,2979729E+001	-3,2878842E-002
27/08/2025 09:57:44.5338	-5,2977814E+001	-3,3080801E-002
27/08/2025 09:57:56.0338	-5,2976543E+001	-3,3263169E-002
27/08/2025 09:58:07.5338	-5,2980358E+001	-3,3468910E-002
27/08/2025 09:58:18.9340	7,9504181E+001	2,4038695E-002
27/08/2025 09:58:30.4340	7,9507347E+001	3,6196265E-002
27/08/2025 09:58:41.9340	7,9514359E+001	3,6659434E-002
27/08/2025 09:58:53.4340	7,9506088E+001	3,6863841E-002
27/08/2025 09:59:04.9340	7,9508629E+001	3,7147857E-002
27/08/2025 09:59:16.4339	7,9506721E+001	3,7421789E-002
27/08/2025 09:59:27.9339	7,9506721E+001	3,7706565E-002
27/08/2025 09:59:39.4339	7,9516266E+001	3,7989166E-002
27/08/2025 09:59:50.9339	7,9511177E+001	3,8288154E-002
27/08/2025 10:00:02.4339	7,9517540E+001	3,8601313E-002
27/08/2025 10:00:13.9339	7,9518173E+001	3,8894001E-002
27/08/2025 10:00:25.3343	5,4321769E-003	-1,7840307E-003
27/08/2025 10:00:36.8343	1,0523110E-002	-2,8768077E-003
27/08/2025 10:00:48.3343	8,6140092E-003	-2,7933798E-003
27/08/2025 10:00:59.8343	4,1594426E-003	-2,7782910E-003
27/08/2025 10:01:11.3343	-2,9512335E-004	-2,7839828E-003
27/08/2025 10:01:22.8343	8,6140092E-003	-2,7788258E-003
27/08/2025 10:01:34.3343	1,1795843E-002	-2,7795134E-003
27/08/2025 10:01:45.8343	7,9776440E-003	-2,7868475E-003
27/08/2025 10:01:57.3343	1,1159477E-002	-2,7789020E-003
27/08/2025 10:02:08.8343	1,4977678E-002	-2,7795515E-003
27/08/2025 10:02:20.2345	-7,9469749E+001	-3,9677687E-002
27/08/2025 10:02:31.7345	-7,9472939E+001	-4,4935681E-002
27/08/2025 10:02:43.2345	-7,9476120E+001	-4,5270536E-002
27/08/2025 10:02:54.7345	-7,9469124E+001	-4,5508176E-002
27/08/2025 10:03:06.2345	-7,9471664E+001	-4,5802888E-002
27/08/2025 10:03:17.7345	-7,9479301E+001	-4,6112612E-002
27/08/2025 10:03:29.2345	-7,9474846E+001	-4,6385009E-002
27/08/2025 10:03:40.7345	-7,9469124E+001	-4,6655312E-002
27/08/2025 10:03:52.2345	-7,9474213E+001	-4,6927523E-002
27/08/2025 10:04:03.7345	-7,9465935E+001	-4,7227047E-002
27/08/2025 10:04:15.2345	-7,9467842E+001	-4,7530733E-002
27/08/2025 10:04:26.6347	1,0601776E+002	4,8672341E-002
27/08/2025 10:04:38.1347	1,0601140E+002	5,0709911E-002
27/08/2025 10:04:49.6347	1,0600822E+002	5,0928909E-002
27/08/2025 10:05:01.1347	1,0601140E+002	5,1300287E-002
27/08/2025 10:05:12.6347	1,0601076E+002	5,1691107E-002
27/08/2025 10:05:24.1347	1,0600949E+002	5,2109547E-002
27/08/2025 10:05:35.6347	1,0600822E+002	5,2476451E-002
27/08/2025 10:05:47.1347	1,0601585E+002	5,2877281E-002
27/08/2025 10:05:58.6347	1,0600949E+002	5,3235978E-002
27/08/2025 10:06:10.1347	1,0601140E+002	5,3640243E-002
27/08/2025 10:06:21.5351	4,7958097E-003	2,6652338E-003
27/08/2025 10:06:33.0351	1,0523110E-002	-1,8990880E-003
27/08/2025 10:06:44.5351	7,9776440E-003	-1,8451120E-003
27/08/2025 10:06:56.0351	1,0523110E-002	-1,7953760E-003
27/08/2025 10:07:07.5351	1,2432210E-002	-1,7952232E-003
27/08/2025 10:07:19.0351	6,7049102E-003	-1,7930458E-003
27/08/2025 10:07:30.5351	7,9776440E-003	-1,7938481E-003
27/08/2025 10:07:42.0351	1,3704944E-002	-1,7917471E-003
27/08/2025 10:07:53.5351	1,0523110E-002	-1,7845273E-003
27/08/2025 10:08:05.0351	1,1795843E-002	-1,7940007E-003
27/08/2025 10:08:16.5351	8,6140092E-003	-1,7862080E-003
27/08/2025 10:08:27.9353	-1,0597633E+002	-5,7402626E-002
27/08/2025 10:08:39.4353	-1,0597314E+002	-5,8410257E-002
27/08/2025 10:08:50.9353	-1,0597761E+002	-5,8669824E-002
27/08/2025 10:09:02.4353	-1,0598079E+002	-5,9037227E-002
27/08/2025 10:09:13.9353	-1,0597379E+002	-5,9406888E-002
27/08/2025 10:09:25.4353	-1,0597124E+002	-5,9800383E-002
27/08/2025 10:09:36.9353	-1,0597507E+002	-6,0183521E-002
27/08/2025 10:09:48.4353	-1,0597251E+002	-6,0582709E-002
27/08/2025 10:09:59.9353	-1,0597189E+002	-6,0992740E-002
27/08/2025 10:10:11.4353	-1,0597825E+002	-6,1387308E-002
27/08/2025 10:10:17.0355	-1,0597060E+002	-6,1454840E-002