File: data/phase_2a/Sergey/1/20.7/02 polarisation/SN50_C5D2E1_hr_0,1MFeCN6_in_1M_KCl_3306mL_symmetric_balanced_4_point_PEIS_10mHz_200kHz_10mV_03_CP_C16.txt
time/s	I/mA	<Ewe/V>
27/08/2025 10:10:17.1377	1,4341676E-001	-2,4099095E-002
27/08/2025 10:10:33.9377	1,3705294E-001	-5,8747916E-003
27/08/2025 10:10:50.7377	1,8796356E-001	-5,9933253E-003
27/08/2025 10:11:07.5377	6,0686987E-002	-6,0200649E-003
27/08/2025 10:11:24.3377	1,4341676E-001	-6,0188808E-003
27/08/2025 10:11:41.1377	1,2432528E-001	-6,0102479E-003
27/08/2025 10:11:57.9377	1,6887209E-001	-6,0124248E-003
27/08/2025 10:12:14.7377	9,8869957E-002	-6,0145641E-003
27/08/2025 10:12:31.5375	1,3262563E+002	6,4104803E-002
27/08/2025 10:12:48.3375	1,3260016E+002	6,4818949E-002
27/08/2025 10:13:05.1375	1,3260016E+002	6,5496422E-002
27/08/2025 10:13:21.9375	1,3258743E+002	6,6202268E-002
27/08/2025 10:13:38.7375	1,3267017E+002	6,6912286E-002
27/08/2025 10:13:55.5375	1,3260016E+002	6,7641094E-002
27/08/2025 10:14:12.3375	1,3254289E+002	6,8386264E-002
27/08/2025 10:14:29.0377	1,4978060E-001	-7,0080359E-004
27/08/2025 10:14:45.8377	8,6142294E-002	-1,0865435E-003
27/08/2025 10:15:02.6377	8,6142294E-002	-1,0349358E-003
27/08/2025 10:15:19.4377	1,3705294E-001	-1,0437982E-003
27/08/2025 10:15:36.2377	8,6142294E-002	-1,0510179E-003
27/08/2025 10:15:53.0377	1,6250826E-001	-1,0483058E-003
27/08/2025 10:16:09.8377	1,3705294E-001	-1,0541121E-003
27/08/2025 10:16:26.5379	-1,3235785E+002	-6,9342151E-002
27/08/2025 10:16:43.3379	-1,3233878E+002	-7,1349703E-002
27/08/2025 10:17:00.1379	-1,3237695E+002	-7,1980566E-002
27/08/2025 10:17:16.9379	-1,3239604E+002	-7,2714642E-002
27/08/2025 10:17:33.7379	-1,3239604E+002	-7,3435709E-002
27/08/2025 10:17:50.5379	-1,3235785E+002	-7,4160345E-002
27/08/2025 10:18:07.3379	-1,3241513E+002	-7,4878462E-002
27/08/2025 10:18:24.0381	1,5913097E+002	7,1673185E-002
27/08/2025 10:18:40.8381	1,5910551E+002	7,8828551E-002
27/08/2025 10:18:57.6381	1,5909914E+002	7,9392307E-002
27/08/2025 10:19:14.4381	1,5909277E+002	8,0258131E-002
27/08/2025 10:19:31.2381	1,5915642E+002	8,1132486E-002
27/08/2025 10:19:48.0381	1,5902278E+002	8,1986889E-002
27/08/2025 10:20:04.8381	1,5901006E+002	8,2881264E-002
27/08/2025 10:20:21.5385	1,8796356E-001	6,7754765E-003
27/08/2025 10:20:38.3385	1,1796144E-001	-2,9447404E-004
27/08/2025 10:20:55.1385	1,1796144E-001	-1,1592892E-004
27/08/2025 10:21:11.9385	1,6250826E-001	-1,1696032E-004
27/08/2025 10:21:28.7385	1,1159762E-001	-1,1730412E-004
27/08/2025 10:21:45.5385	1,5614443E-001	-1,1951970E-004
27/08/2025 10:22:02.3385	2,2504006E-002	-1,2043649E-004
27/08/2025 10:22:19.0387	-1,5889502E+002	-6,8125039E-002
27/08/2025 10:22:35.8387	-1,5881229E+002	-8,4214687E-002
27/08/2025 10:22:52.6387	-1,5882503E+002	-8,4930092E-002
27/08/2025 10:23:09.4387	-1,5889502E+002	-8,5834920E-002
27/08/2025 10:23:26.2387	-1,5888866E+002	-8,6701065E-002
27/08/2025 10:23:43.0387	-1,5890776E+002	-8,7583706E-002
27/08/2025 10:23:59.8387	-1,5892683E+002	-8,8470392E-002
27/08/2025 10:24:16.6387	-1,5889502E+002	-8,9337103E-002
27/08/2025 10:24:33.3389	1,8570631E+002	9,2595667E-002
27/08/2025 10:24:50.1389	1,8562360E+002	9,3298577E-002
27/08/2025 10:25:06.9389	1,8560449E+002	9,4260745E-002
27/08/2025 10:25:23.7389	1,8564267E+002	9,5286980E-002
27/08/2025 10:25:40.5389	1,8564905E+002	9,6339837E-002
27/08/2025 10:25:57.3389	1,8558540E+002	9,7351976E-002
27/08/2025 10:26:14.1389	1,8560449E+002	9,8406166E-002
27/08/2025 10:26:30.8393	9,2506140E-002	8,9861528E-004
27/08/2025 10:26:47.6393	1,2432528E-001	7,8921148E-004
27/08/2025 10:27:04.4393	4,7959324E-002	8,3650264E-004
27/08/2025 10:27:21.2393	1,3068911E-001	8,2500454E-004
27/08/2025 10:27:38.0393	1,4341676E-001	8,2152837E-004
27/08/2025 10:27:54.8393	1,3705294E-001	8,2573033E-004
27/08/2025 10:28:11.6393	1,0523378E-001	8,2851894E-004
27/08/2025 10:28:28.3395	-1,8537491E+002	-9,5813088E-002
27/08/2025 10:28:45.1395	-1,8534309E+002	-9,7712450E-002
27/08/2025 10:29:01.9395	-1,8533673E+002	-9,8729901E-002
27/08/2025 10:29:18.7395	-1,8534309E+002	-9,9817865E-002
27/08/2025 10:29:35.5395	-1,8535582E+002	-1,0089872E-001
27/08/2025 10:29:52.3395	-1,8533037E+002	-1,0194860E-001
27/08/2025 10:30:09.1395	-1,8531128E+002	-1,0302240E-001
27/08/2025 10:30:25.8397	2,1221803E+002	1,0105925E-001
27/08/2025 10:30:42.6397	2,1217349E+002	1,0723853E-001
27/08/2025 10:30:59.4397	2,1212894E+002	1,0813657E-001
27/08/2025 10:31:16.2397	2,1217349E+002	1,0936790E-001
27/08/2025 10:31:33.0397	2,1214803E+002	1,1059079E-001
27/08/2025 10:31:49.8397	2,1215439E+002	1,1178166E-001
27/08/2025 10:32:06.6397	2,1216711E+002	1,1299190E-001
27/08/2025 10:32:23.3401	1,1159762E-001	7,1414290E-003
27/08/2025 10:32:40.1401	1,1796144E-001	1,5614554E-003
27/08/2025 10:32:56.9401	1,3705294E-001	1,7752205E-003
27/08/2025 10:33:13.7401	1,4341676E-001	1,7692614E-003
27/08/2025 10:33:30.5401	1,1159762E-001	1,7631877E-003
27/08/2025 10:33:47.3401	1,1796144E-001	1,7595204E-003
27/08/2025 10:34:04.1401	1,2432528E-001	1,7674278E-003
27/08/2025 10:34:20.8403	-2,1182300E+002	-9,7067416E-002
27/08/2025 10:34:37.6403	-2,1174026E+002	-1,1076477E-001
27/08/2025 10:34:54.4403	-2,1175299E+002	-1,1167736E-001
27/08/2025 10:35:11.2403	-2,1179117E+002	-1,1285662E-001
27/08/2025 10:35:28.0403	-2,1177846E+002	-1,1404482E-001
27/08/2025 10:35:44.8403	-2,1182300E+002	-1,1527668E-001
27/08/2025 10:36:01.6403	-2,1173389E+002	-1,1655018E-001
27/08/2025 10:36:18.3405	2,3858974E+002	6,7518748E-002
27/08/2025 10:36:35.1405	2,3862791E+002	1,2112773E-001
27/08/2025 10:36:51.9405	2,3863429E+002	1,2192141E-001
27/08/2025 10:37:08.7405	2,3862791E+002	1,2328617E-001
27/08/2025 10:37:25.5405	2,3860246E+002	1,2471002E-001
27/08/2025 10:37:42.3405	2,3850700E+002	1,2612593E-001
27/08/2025 10:37:59.1405	2,3864700E+002	1,2757781E-001
27/08/2025 10:38:15.9405	2,3860883E+002	1,2900358E-001
27/08/2025 10:38:32.6409	1,4978060E-001	2,5189675E-003
27/08/2025 10:38:49.4409	6,7050815E-002	2,6848302E-003
27/08/2025 10:39:06.2409	1,0523378E-001	2,7138619E-003
27/08/2025 10:39:23.0409	7,9778478E-002	2,7105387E-003
27/08/2025 10:39:39.8409	1,3068911E-001	2,7131743E-003
27/08/2025 10:39:56.6409	1,0523378E-001	2,7109971E-003
27/08/2025 10:40:13.4409	1,8796356E-001	2,6978564E-003
27/08/2025 10:40:30.1411	-2,3830923E+002	-1,2282146E-001
27/08/2025 10:40:46.9411	-2,3834743E+002	-1,2463120E-001
27/08/2025 10:41:03.7411	-2,3828378E+002	-1,2589270E-001
27/08/2025 10:41:20.5411	-2,3828378E+002	-1,2730767E-001
27/08/2025 10:41:37.3411	-2,3829016E+002	-1,2871544E-001
27/08/2025 10:41:54.1411	-2,3832834E+002	-1,3011472E-001
27/08/2025 10:42:10.9411	-2,3829652E+002	-1,3153762E-001
27/08/2025 10:42:27.6413	2,6510782E+002	1,3092712E-001
27/08/2025 10:42:44.4413	2,6513327E+002	1,3598748E-001
27/08/2025 10:43:01.2413	2,6508234E+002	1,3726239E-001
27/08/2025 10:43:18.0413	2,6509509E+002	1,3882352E-001
27/08/2025 10:43:34.8413	2,6512054E+002	1,4043468E-001
27/08/2025 10:43:51.6413	2,6512689E+002	1,4208890E-001
27/08/2025 10:44:08.4413	2,6510782E+002	1,4379261E-001
27/08/2025 10:44:25.1417	1,3068911E-001	7,4423663E-003
27/08/2025 10:44:41.9417	1,4341676E-001	3,4375542E-003
27/08/2025 10:44:58.7417	1,1159762E-001	3,6523889E-003
27/08/2025 10:45:15.5417	1,3068911E-001	3,6479197E-003
27/08/2025 10:45:32.3417	1,2432528E-001	3,6487598E-003
27/08/2025 10:45:49.1417	7,3414646E-002	3,6436794E-003
27/08/2025 10:46:05.9417	1,4978060E-001	3,6449018E-003
27/08/2025 10:46:22.6419	-2,6473187E+002	-1,2617818E-001
27/08/2025 10:46:39.4419	-2,6481461E+002	-1,3762653E-001
27/08/2025 10:46:56.2419	-2,6472549E+002	-1,3891041E-001
27/08/2025 10:47:13.0419	-2,6474460E+002	-1,4047961E-001
27/08/2025 10:47:29.8419	-2,6475732E+002	-1,4206617E-001
27/08/2025 10:47:46.6419	-2,6480188E+002	-1,4366207E-001
27/08/2025 10:48:03.4419	-2,6480188E+002	-1,4527120E-001
27/08/2025 10:48:20.1421	2,9157498E+002	1,0918447E-001
27/08/2025 10:48:36.9421	2,9155588E+002	1,5023899E-001
27/08/2025 10:48:53.7421	2,9161316E+002	1,5121701E-001
27/08/2025 10:49:10.5421	2,9156223E+002	1,5298279E-001
27/08/2025 10:49:27.3421	2,9159409E+002	1,5480019E-001
27/08/2025 10:49:44.1421	2,9156223E+002	1,5661332E-001
27/08/2025 10:50:00.9421	2,9156223E+002	1,5846777E-001
27/08/2025 10:50:17.6425	9,8869957E-002	4,8258565E-002
27/08/2025 10:50:34.4425	1,5614443E-001	4,2301202E-003
27/08/2025 10:50:51.2425	1,3705294E-001	4,5698294E-003
27/08/2025 10:51:08.0425	1,4978060E-001	4,5916801E-003
27/08/2025 10:51:24.8425	1,3068911E-001	4,5837727E-003
27/08/2025 10:51:41.6425	1,3068911E-001	4,5935898E-003
27/08/2025 10:51:58.4425	1,3705294E-001	4,5851097E-003
27/08/2025 10:52:15.2425	1,3705294E-001	4,5759799E-003
27/08/2025 10:52:31.9427	-2,9131995E+002	-1,5002617E-001
27/08/2025 10:52:48.7427	-2,9130084E+002	-1,5189898E-001
27/08/2025 10:53:05.5427	-2,9137088E+002	-1,5361339E-001
27/08/2025 10:53:22.3427	-2,9131360E+002	-1,5542790E-001
27/08/2025 10:53:39.1427	-2,9134540E+002	-1,5721248E-001
27/08/2025 10:53:55.9427	-2,9137723E+002	-1,5902856E-001
27/08/2025 10:54:12.7427	-2,9128812E+002	-1,6086291E-001
27/08/2025 10:54:29.4429	3,1818851E+002	1,6149108E-001
27/08/2025 10:54:46.2429	3,1812488E+002	1,6553508E-001
27/08/2025 10:55:03.0429	3,1824579E+002	1,6725804E-001
27/08/2025 10:55:19.8429	3,1820123E+002	1,6929241E-001
27/08/2025 10:55:36.6429	3,1817581E+002	1,7134283E-001
27/08/2025 10:55:53.4429	3,1811215E+002	1,7345963E-001
27/08/2025 10:56:10.2429	3,1817581E+002	1,7559671E-001
27/08/2025 10:56:26.9433	1,4978060E-001	7,9614995E-003
27/08/2025 10:56:43.7433	1,0523378E-001	5,3493315E-003
27/08/2025 10:57:00.5433	1,2432528E-001	5,5447225E-003
27/08/2025 10:57:17.3433	5,4323155E-002	5,5448753E-003
27/08/2025 10:57:34.1433	7,9778478E-002	5,5295955E-003
27/08/2025 10:57:50.9433	1,0523378E-001	5,5375793E-003
27/08/2025 10:58:07.7433	1,5614443E-001	5,5338740E-003
27/08/2025 10:58:24.4435	-3,1785712E+002	-1,5558112E-001
27/08/2025 10:58:41.2435	-3,1788254E+002	-1,6493182E-001
27/08/2025 10:58:58.0435	-3,1785074E+002	-1,6668579E-001
27/08/2025 10:59:14.8435	-3,1782526E+002	-1,6875412E-001
27/08/2025 10:59:31.6435	-3,1787619E+002	-1,7089149E-001
27/08/2025 10:59:48.4435	-3,1778073E+002	-1,7299382E-001
27/08/2025 11:00:05.2435	-3,1788254E+002	-1,7507027E-001
27/08/2025 11:00:17.1437	-3,1792075E+002	-1,7668404E-001